TITLE	12.1_V_10
DATA TYPE	ULTRAVIOLET SPECTRUM
ORIGIN	JASCO
OWNER	
DATE	21/04/27
TIME	12:23:47
SPECTROMETER/DATA SYSTEM	
RESOLUTION	
DELTAX	-1
XUNITS	NANOMETERS
YUNITS	TRANSMITTANCE
FIRSTX	 1500.0000
LASTX	  200.0000
NPOINTS	    1301
FIRSTY	    57.51072
MAXY	    66.41182
MINY	     0.00085
XYDATA
1500.0000	57.5107
1499.0000	57.2835
1498.0000	57.063
1497.0000	56.8085
1496.0000	56.6769
1495.0000	56.4796
1494.0000	56.3763
1493.0000	56.2843
1492.0000	56.1704
1491.0000	56.092
1490.0000	56.0313
1489.0000	56.0264
1488.0000	56.1104
1487.0000	56.1411
1486.0000	56.1564
1485.0000	56.3001
1484.0000	56.3791
1483.0000	56.5534
1482.0000	56.7237
1481.0000	56.9426
1480.0000	57.1421
1479.0000	57.3396
1478.0000	57.6322
1477.0000	57.9262
1476.0000	58.2126
1475.0000	58.5269
1474.0000	58.888
1473.0000	59.2594
1472.0000	59.5994
1471.0000	60.0195
1470.0000	60.4197
1469.0000	60.8065
1468.0000	61.1946
1467.0000	61.6116
1466.0000	62.0151
1465.0000	62.353
1464.0000	62.7936
1463.0000	63.2073
1462.0000	63.5566
1461.0000	63.9655
1460.0000	64.3066
1459.0000	64.6866
1458.0000	64.9282
1457.0000	65.2003
1456.0000	65.4495
1455.0000	65.6801
1454.0000	65.9577
1453.0000	66.0705
1452.0000	66.2001
1451.0000	66.3777
1450.0000	66.4118
1449.0000	66.3772
1448.0000	66.3986
1447.0000	66.3909
1446.0000	66.3013
1445.0000	66.1759
1444.0000	66.0432
1443.0000	65.8904
1442.0000	65.7288
1441.0000	65.4376
1440.0000	65.1595
1439.0000	64.9028
1438.0000	64.6176
1437.0000	64.2074
1436.0000	63.8018
1435.0000	63.4393
1434.0000	63.0907
1433.0000	62.674
1432.0000	62.2245
1431.0000	61.8292
1430.0000	61.4456
1429.0000	60.9966
1428.0000	60.5919
1427.0000	60.2218
1426.0000	59.8007
1425.0000	59.3829
1424.0000	59.0867
1423.0000	58.7251
1422.0000	58.3907
1421.0000	58.0643
1420.0000	57.7734
1419.0000	57.5
1418.0000	57.2906
1417.0000	57.094
1416.0000	56.8952
1415.0000	56.7654
1414.0000	56.5611
1413.0000	56.4821
1412.0000	56.3941
1411.0000	56.3417
1410.0000	56.3216
1409.0000	56.3184
1408.0000	56.3593
1407.0000	56.4317
1406.0000	56.5422
1405.0000	56.7071
1404.0000	56.8705
1403.0000	57.1421
1402.0000	57.3611
1401.0000	57.6284
1400.0000	57.9047
1399.0000	58.2057
1398.0000	58.5145
1397.0000	58.8892
1396.0000	59.2989
1395.0000	59.6556
1394.0000	60.0682
1393.0000	60.4407
1392.0000	60.9581
1391.0000	61.3911
1390.0000	61.8337
1389.0000	62.2042
1388.0000	62.6299
1387.0000	63.0658
1386.0000	63.4705
1385.0000	63.8305
1384.0000	64.1618
1383.0000	64.5374
1382.0000	64.864
1381.0000	65.13
1380.0000	65.4398
1379.0000	65.6252
1378.0000	65.8339
1377.0000	65.9776
1376.0000	66.0905
1375.0000	66.2083
1374.0000	66.246
1373.0000	66.1706
1372.0000	66.065
1371.0000	65.9393
1370.0000	65.7422
1369.0000	65.5521
1368.0000	65.3006
1367.0000	64.9643
1366.0000	64.6088
1365.0000	64.2939
1364.0000	63.9045
1363.0000	63.5137
1362.0000	63.1153
1361.0000	62.7071
1360.0000	62.2814
1359.0000	61.9019
1358.0000	61.462
1357.0000	61.0384
1356.0000	60.6438
1355.0000	60.2866
1354.0000	59.9302
1353.0000	59.5834
1352.0000	59.188
1351.0000	58.8206
1350.0000	58.5104
1349.0000	58.2701
1348.0000	57.9675
1347.0000	57.76
1346.0000	57.5564
1345.0000	57.3988
1344.0000	57.2113
1343.0000	57.0979
1342.0000	57.0356
1341.0000	57.0195
1340.0000	56.9929
1339.0000	56.9366
1338.0000	57.0068
1337.0000	57.1153
1336.0000	57.2389
1335.0000	57.4065
1334.0000	57.6353
1333.0000	57.8289
1332.0000	58.0669
1331.0000	58.3593
1330.0000	58.6751
1329.0000	59.0261
1328.0000	59.3811
1327.0000	59.7613
1326.0000	60.1224
1325.0000	60.5829
1324.0000	60.9769
1323.0000	61.4035
1322.0000	61.8253
1321.0000	62.2497
1320.0000	62.6751
1319.0000	63.0922
1318.0000	63.4671
1317.0000	63.8666
1316.0000	64.2595
1315.0000	64.565
1314.0000	64.8761
1313.0000	65.0899
1312.0000	65.3321
1311.0000	65.5521
1310.0000	65.6964
1309.0000	65.8126
1308.0000	65.8626
1307.0000	65.9122
1306.0000	65.9046
1305.0000	65.8044
1304.0000	65.7095
1303.0000	65.5663
1302.0000	65.3162
1301.0000	65.0892
1300.0000	64.7967
1299.0000	64.5065
1298.0000	64.1167
1297.0000	63.7537
1296.0000	63.3641
1295.0000	62.9869
1294.0000	62.5724
1293.0000	62.1256
1292.0000	61.6942
1291.0000	61.2934
1290.0000	60.8362
1289.0000	60.4004
1288.0000	60.0248
1287.0000	59.6756
1286.0000	59.3485
1285.0000	58.959
1284.0000	58.6181
1283.0000	58.3994
1282.0000	58.1589
1281.0000	57.9128
1280.0000	57.711
1279.0000	57.6239
1278.0000	57.5208
1277.0000	57.4576
1276.0000	57.5108
1275.0000	57.52
1274.0000	57.5795
1273.0000	57.679
1272.0000	57.8364
1271.0000	58.0362
1270.0000	58.2621
1269.0000	58.5106
1268.0000	58.8067
1267.0000	59.1236
1266.0000	59.461
1265.0000	59.8407
1264.0000	60.2664
1263.0000	60.6914
1262.0000	61.0918
1261.0000	61.5547
1260.0000	62.0065
1259.0000	62.3967
1258.0000	62.8228
1257.0000	63.2399
1256.0000	63.6727
1255.0000	64.0395
1254.0000	64.3828
1253.0000	64.6561
1252.0000	64.9466
1251.0000	65.2219
1250.0000	65.3894
1249.0000	65.553
1248.0000	65.6767
1247.0000	65.701
1246.0000	65.7577
1245.0000	65.7512
1244.0000	65.6322
1243.0000	65.4566
1242.0000	65.2843
1241.0000	65.0665
1240.0000	64.7749
1239.0000	64.4726
1238.0000	64.0984
1237.0000	63.7243
1236.0000	63.3581
1235.0000	62.9762
1234.0000	62.5484
1233.0000	62.1248
1232.0000	61.6908
1231.0000	61.2855
1230.0000	60.876
1229.0000	60.4812
1228.0000	60.0804
1227.0000	59.7578
1226.0000	59.4276
1225.0000	59.1082
1224.0000	58.8568
1223.0000	58.6685
1222.0000	58.4733
1221.0000	58.3096
1220.0000	58.218
1219.0000	58.1466
1218.0000	58.1588
1217.0000	58.233
1216.0000	58.3278
1215.0000	58.4809
1214.0000	58.6255
1213.0000	58.8615
1212.0000	59.1743
1211.0000	59.453
1210.0000	59.7685
1209.0000	60.1982
1208.0000	60.5731
1207.0000	60.9848
1206.0000	61.3921
1205.0000	61.8021
1204.0000	62.2266
1203.0000	62.653
1202.0000	63.0095
1201.0000	63.4241
1200.0000	63.9462
1199.0000	64.2986
1198.0000	64.6471
1197.0000	64.8734
1196.0000	65.1572
1195.0000	65.2995
1194.0000	65.4413
1193.0000	65.5448
1192.0000	65.6189
1191.0000	65.6115
1190.0000	65.496
1189.0000	65.3954
1188.0000	65.2447
1187.0000	64.9991
1186.0000	64.7568
1185.0000	64.4915
1184.0000	64.1634
1183.0000	63.7843
1182.0000	63.4094
1181.0000	63.0386
1180.0000	62.6507
1179.0000	62.2578
1178.0000	61.8345
1177.0000	61.4629
1176.0000	61.0666
1175.0000	60.6825
1174.0000	60.3999
1173.0000	60.0976
1172.0000	59.788
1171.0000	59.5799
1170.0000	59.3779
1169.0000	59.2194
1168.0000	59.1068
1167.0000	59.0542
1166.0000	59.0574
1165.0000	59.0619
1164.0000	59.1656
1163.0000	59.3626
1162.0000	59.5506
1161.0000	59.7792
1160.0000	60.0318
1159.0000	60.3126
1158.0000	60.6314
1157.0000	61.0253
1156.0000	61.4183
1155.0000	61.7831
1154.0000	62.1908
1153.0000	62.6158
1152.0000	63.0192
1151.0000	63.4368
1150.0000	63.77
1149.0000	64.0446
1148.0000	64.3661
1147.0000	64.5903
1146.0000	64.8283
1145.0000	65.0223
1144.0000	65.1257
1143.0000	65.2085
1142.0000	65.233
1141.0000	65.153
1140.0000	65.0752
1139.0000	64.9483
1138.0000	64.7317
1137.0000	64.488
1136.0000	64.2701
1135.0000	63.952
1134.0000	63.5799
1133.0000	63.1961
1132.0000	62.7855
1131.0000	62.375
1130.0000	62.0241
1129.0000	61.6223
1128.0000	61.2296
1127.0000	60.8337
1126.0000	60.5147
1125.0000	60.2653
1124.0000	59.9683
1123.0000	59.721
1122.0000	59.5218
1121.0000	59.3978
1120.0000	59.3259
1119.0000	59.2865
1118.0000	59.3223
1117.0000	59.3675
1116.0000	59.4981
1115.0000	59.6936
1114.0000	59.9415
1113.0000	60.2029
1112.0000	60.4561
1111.0000	60.7949
1110.0000	61.1295
1109.0000	61.4631
1108.0000	61.8451
1107.0000	62.2182
1106.0000	62.5997
1105.0000	63.004
1104.0000	63.359
1103.0000	63.678
1102.0000	63.9921
1101.0000	64.2299
1100.0000	64.4344
1099.0000	64.5714
1098.0000	64.6881
1097.0000	64.7409
1096.0000	64.7485
1095.0000	64.6827
1094.0000	64.5693
1093.0000	64.3729
1092.0000	64.1997
1091.0000	63.9449
1090.0000	63.6451
1089.0000	63.3011
1088.0000	62.9845
1087.0000	62.6316
1086.0000	62.1976
1085.0000	61.8146
1084.0000	61.4389
1083.0000	61.1297
1082.0000	60.8118
1081.0000	60.5022
1080.0000	60.222
1079.0000	59.9656
1078.0000	59.7842
1077.0000	59.6714
1076.0000	59.5868
1075.0000	59.5669
1074.0000	59.5801
1073.0000	59.6538
1072.0000	59.769
1071.0000	59.9379
1070.0000	60.1363
1069.0000	60.3742
1068.0000	60.7095
1067.0000	61.0259
1066.0000	61.3929
1065.0000	61.7054
1064.0000	62.082
1063.0000	62.5321
1062.0000	62.8352
1061.0000	63.1275
1060.0000	63.3959
1059.0000	63.6828
1058.0000	63.8921
1057.0000	64.0234
1056.0000	64.1475
1055.0000	64.2348
1054.0000	64.2191
1053.0000	64.1179
1052.0000	63.9968
1051.0000	63.8321
1050.0000	63.5859
1049.0000	63.3214
1048.0000	63.0439
1047.0000	62.7236
1046.0000	62.4101
1045.0000	62.0476
1044.0000	61.6448
1043.0000	61.3072
1042.0000	60.9277
1041.0000	60.5441
1040.0000	60.2607
1039.0000	60.0343
1038.0000	59.8441
1037.0000	59.6739
1036.0000	59.5921
1035.0000	59.5801
1034.0000	59.5702
1033.0000	59.6717
1032.0000	59.7878
1031.0000	59.9387
1030.0000	60.1122
1029.0000	60.3832
1028.0000	60.7279
1027.0000	61.0572
1026.0000	61.3594
1025.0000	61.7573
1024.0000	62.1277
1023.0000	62.4153
1022.0000	62.7362
1021.0000	62.9685
1020.0000	63.1932
1019.0000	63.3531
1018.0000	63.4908
1017.0000	63.578
1016.0000	63.5877
1015.0000	63.5501
1014.0000	63.4392
1013.0000	63.2523
1012.0000	63.0026
1011.0000	62.7557
1010.0000	62.4303
1009.0000	62.1237
1008.0000	61.732
1007.0000	61.3568
1006.0000	61.0114
1005.0000	60.6255
1004.0000	60.3118
1003.0000	60.0014
1002.0000	59.7247
1001.0000	59.472
1000.0000	59.2913
999.0000	59.2055
998.0000	59.128
997.0000	59.1673
996.0000	59.2824
995.0000	59.395
994.0000	59.5826
993.0000	59.8193
992.0000	60.0717
991.0000	60.3961
990.0000	60.7262
989.0000	61.0732
988.0000	61.4436
987.0000	61.79
986.0000	62.0767
985.0000	62.3633
984.0000	62.5701
983.0000	62.7029
982.0000	62.8806
981.0000	62.9288
980.0000	62.8691
979.0000	62.8379
978.0000	62.731
977.0000	62.5459
976.0000	62.3044
975.0000	61.9866
974.0000	61.6679
973.0000	61.3621
972.0000	60.9727
971.0000	60.5921
970.0000	60.247
969.0000	59.9036
968.0000	59.558
967.0000	59.2171
966.0000	59.0282
965.0000	58.8761
964.0000	58.7661
963.0000	58.7592
962.0000	58.8428
961.0000	58.9273
960.0000	59.1048
959.0000	59.2758
958.0000	59.5539
957.0000	59.8955
956.0000	60.181
955.0000	60.5018
954.0000	60.8967
953.0000	61.1737
952.0000	61.4638
951.0000	61.7222
950.0000	61.9235
949.0000	62.0939
948.0000	62.1663
947.0000	62.2087
946.0000	62.0896
945.0000	61.9654
944.0000	61.8275
943.0000	61.6051
942.0000	61.31
941.0000	61.005
940.0000	60.7144
939.0000	60.3848
938.0000	59.9834
937.0000	59.6348
936.0000	59.3046
935.0000	58.9809
934.0000	58.7255
933.0000	58.5478
932.0000	58.4542
931.0000	58.4402
930.0000	58.3759
929.0000	58.4932
928.0000	58.5948
927.0000	58.7375
926.0000	59.0445
925.0000	59.3005
924.0000	59.5937
923.0000	59.9123
922.0000	60.2618
921.0000	60.5502
920.0000	60.7995
919.0000	61.0406
918.0000	61.2188
917.0000	61.3595
916.0000	61.4167
915.0000	61.4583
914.0000	61.3974
913.0000	61.2748
912.0000	60.9371
911.0000	60.6371
910.0000	60.3874
909.0000	60.0561
908.0000	59.6549
907.0000	59.341
906.0000	58.9916
905.0000	58.6397
904.0000	58.3818
903.0000	58.0635
902.0000	57.9629
901.0000	57.8227
900.0000	50.7358
899.0000	49.9088
898.0000	49.1128
897.0000	48.6614
896.0000	48.6323
895.0000	48.2883
894.0000	48.2976
893.0000	48.5745
892.0000	49.0567
891.0000	49.3364
890.0000	49.8958
889.0000	50.5474
888.0000	51.4348
887.0000	52.2334
886.0000	52.9793
885.0000	53.7619
884.0000	54.3541
883.0000	54.9243
882.0000	55.2933
881.0000	55.3948
880.0000	55.4327
879.0000	55.0698
878.0000	54.6625
877.0000	54.1669
876.0000	53.3193
875.0000	52.391
874.0000	51.4057
873.0000	50.4583
872.0000	49.5498
871.0000	48.7427
870.0000	48.1031
869.0000	47.5207
868.0000	47.1108
867.0000	46.9228
866.0000	46.9041
865.0000	47.0961
864.0000	47.4562
863.0000	47.9848
862.0000	48.6325
861.0000	49.4805
860.0000	50.3738
859.0000	51.3075
858.0000	52.2379
857.0000	53.1899
856.0000	53.9791
855.0000	54.5703
854.0000	55.0186
853.0000	55.1439
852.0000	55.0308
851.0000	54.7156
850.0000	54.1406
849.0000	53.3825
848.0000	52.4758
847.0000	51.4846
846.0000	50.5025
845.0000	49.5187
844.0000	48.6541
843.0000	47.8931
842.0000	47.3404
841.0000	46.9741
840.0000	46.8502
839.0000	46.9069
838.0000	47.224
837.0000	47.7251
836.0000	48.4141
835.0000	49.2706
834.0000	50.2519
833.0000	51.2968
832.0000	52.347
831.0000	53.3485
830.0000	54.2385
829.0000	54.8903
828.0000	55.3169
827.0000	55.457
826.0000	55.2956
825.0000	54.8336
824.0000	54.1171
823.0000	53.1907
822.0000	52.1721
821.0000	51.0613
820.0000	49.94
819.0000	48.904
818.0000	47.9823
817.0000	47.2876
816.0000	46.8245
815.0000	46.5858
814.0000	46.6171
813.0000	46.9167
812.0000	47.4375
811.0000	48.1828
810.0000	49.1451
809.0000	50.2349
808.0000	51.3785
807.0000	52.5055
806.0000	53.5318
805.0000	54.3302
804.0000	54.919
803.0000	55.181
802.0000	55.1066
801.0000	54.7114
800.0000	53.9927
799.0000	53.0083
798.0000	51.8809
797.0000	50.6865
796.0000	49.5216
795.0000	48.4691
794.0000	47.5914
793.0000	46.9573
792.0000	46.6045
791.0000	46.5144
790.0000	46.7198
789.0000	47.2441
788.0000	48.016
787.0000	49.0057
786.0000	50.11
785.0000	51.2998
784.0000	52.4825
783.0000	53.5561
782.0000	54.4364
781.0000	54.9786
780.0000	55.1517
779.0000	54.9667
778.0000	54.4243
777.0000	53.5613
776.0000	52.4651
775.0000	51.2708
774.0000	50.08
773.0000	48.9484
772.0000	47.9834
771.0000	47.2897
770.0000	46.8469
769.0000	46.7214
768.0000	46.95
767.0000	47.4726
766.0000	48.2749
765.0000	49.3021
764.0000	50.5024
763.0000	51.7881
762.0000	53.0247
761.0000	54.1055
760.0000	54.8666
759.0000	55.2948
758.0000	55.3108
757.0000	54.9039
756.0000	54.1562
755.0000	53.1138
754.0000	51.9052
753.0000	50.6501
752.0000	49.4665
751.0000	48.4685
750.0000	47.7616
749.0000	47.35
748.0000	47.2777
747.0000	47.5924
746.0000	48.2543
745.0000	49.2166
744.0000	50.3898
743.0000	51.7071
742.0000	53.0176
741.0000	54.2062
740.0000	55.0484
739.0000	55.5609
738.0000	55.6212
737.0000	55.2491
736.0000	54.4902
735.0000	53.4543
734.0000	52.2625
733.0000	51.0124
732.0000	49.8804
731.0000	48.9707
730.0000	48.3569
729.0000	48.0969
728.0000	48.2245
727.0000	48.6979
726.0000	49.532
725.0000	50.6467
724.0000	51.9569
723.0000	53.2931
722.0000	54.513
721.0000	55.4762
720.0000	56.0535
719.0000	56.1713
718.0000	55.8547
717.0000	55.1355
716.0000	54.0932
715.0000	52.8785
714.0000	51.6439
713.0000	50.5298
712.0000	49.6749
711.0000	49.1707
710.0000	49.0719
709.0000	49.3836
708.0000	50.0822
707.0000	51.0967
706.0000	52.3456
705.0000	53.6662
704.0000	54.8758
703.0000	55.8739
702.0000	56.4809
701.0000	56.6013
700.0000	56.2453
699.0000	55.4656
698.0000	54.4009
697.0000	53.1968
696.0000	52.0228
695.0000	51.0518
694.0000	50.3983
693.0000	50.1491
692.0000	50.3377
691.0000	50.959
690.0000	51.9465
689.0000	53.1304
688.0000	54.4214
687.0000	55.6429
686.0000	56.5682
685.0000	57.1451
684.0000	57.2419
683.0000	56.8623
682.0000	56.0431
681.0000	54.9328
680.0000	53.7329
679.0000	52.6256
678.0000	51.7728
677.0000	51.2942
676.0000	51.2415
675.0000	51.6032
674.0000	52.3755
673.0000	53.4417
672.0000	54.6645
671.0000	55.8625
670.0000	56.8324
669.0000	57.4046
668.0000	57.5115
667.0000	57.1513
666.0000	56.3593
665.0000	55.3283
664.0000	54.1986
663.0000	53.1592
662.0000	52.4088
661.0000	52.046
660.0000	52.141
659.0000	52.6905
658.0000	53.6217
657.0000	54.7551
656.0000	55.9028
655.0000	56.9061
654.0000	57.5624
653.0000	57.7451
652.0000	57.4254
651.0000	56.6742
650.0000	55.6551
649.0000	54.5482
648.0000	53.5928
647.0000	52.9553
646.0000	52.7268
645.0000	52.9737
644.0000	53.6602
643.0000	54.6513
642.0000	55.8046
641.0000	56.8548
640.0000	57.6145
639.0000	57.9138
638.0000	57.7034
637.0000	57.0318
636.0000	56.0796
635.0000	55.0086
634.0000	54.0612
633.0000	53.409
632.0000	53.2011
631.0000	53.4678
630.0000	54.1439
629.0000	55.12
628.0000	56.2127
627.0000	57.1529
626.0000	57.7282
625.0000	57.8451
624.0000	57.4625
623.0000	56.6468
622.0000	55.59
621.0000	54.5278
620.0000	53.7166
619.0000	53.3339
618.0000	53.4219
617.0000	53.9823
616.0000	54.9104
615.0000	56.0053
614.0000	56.9913
613.0000	57.628
612.0000	57.7625
611.0000	57.3565
610.0000	56.5223
609.0000	55.447
608.0000	54.389
607.0000	53.6439
606.0000	53.3638
605.0000	53.6279
604.0000	54.3535
603.0000	55.3721
602.0000	56.4639
601.0000	57.2944
600.0000	57.5823
599.0000	57.3488
598.0000	56.5579
597.0000	55.4752
596.0000	54.346
595.0000	53.4693
594.0000	53.0793
593.0000	53.2637
592.0000	53.9999
591.0000	55.0778
590.0000	56.1824
589.0000	56.9685
588.0000	57.2451
587.0000	56.912
586.0000	56.031
585.0000	54.857
584.0000	53.7223
583.0000	52.9455
582.0000	52.7447
581.0000	53.1743
580.0000	54.1196
579.0000	55.2918
578.0000	56.3024
577.0000	56.8638
576.0000	56.8043
575.0000	56.135
574.0000	55.017
573.0000	53.7641
572.0000	52.788
571.0000	52.389
570.0000	52.7
569.0000	53.5794
568.0000	54.765
567.0000	55.8609
566.0000	56.4818
565.0000	56.4433
564.0000	55.7063
563.0000	54.5115
562.0000	53.2835
561.0000	52.4131
560.0000	52.1827
559.0000	52.6902
558.0000	53.7463
557.0000	54.9767
556.0000	55.9319
555.0000	56.2598
554.0000	55.8269
553.0000	54.7871
552.0000	53.4798
551.0000	52.4412
550.0000	52.022
549.0000	52.3965
548.0000	53.4214
547.0000	54.6926
546.0000	55.7075
545.0000	56.0854
544.0000	55.7016
543.0000	54.6815
542.0000	53.462
541.0000	52.5237
540.0000	52.2681
539.0000	52.8052
538.0000	53.9158
537.0000	55.1413
536.0000	55.987
535.0000	56.1105
534.0000	55.5034
533.0000	54.4226
532.0000	53.3201
531.0000	52.7044
530.0000	52.8811
529.0000	53.764
528.0000	54.9672
527.0000	55.9961
526.0000	56.4149
525.0000	56.084
524.0000	55.1698
523.0000	54.1072
522.0000	53.4663
521.0000	53.5859
520.0000	54.3673
519.0000	55.5663
518.0000	56.526
517.0000	56.8675
516.0000	56.4995
515.0000	55.6226
514.0000	54.7557
513.0000	54.3673
512.0000	54.7226
511.0000	55.6803
510.0000	56.7749
509.0000	57.5017
508.0000	57.5567
507.0000	56.9894
506.0000	56.1618
505.0000	55.6204
504.0000	55.7606
503.0000	56.5514
502.0000	57.573
501.0000	58.3315
500.0000	58.4693
499.0000	58.028
498.0000	57.3663
497.0000	56.9167
496.0000	57.079
495.0000	57.7977
494.0000	58.6752
493.0000	59.2681
492.0000	59.2927
491.0000	58.8725
490.0000	58.3476
489.0000	58.1539
488.0000	58.4952
487.0000	59.1777
486.0000	59.8114
485.0000	60.0627
484.0000	59.8722
483.0000	59.459
482.0000	59.1879
481.0000	59.3159
480.0000	59.8021
479.0000	60.324
478.0000	60.6049
477.0000	60.4988
476.0000	60.2055
475.0000	59.9855
474.0000	60.069
473.0000	60.406
472.0000	60.7675
471.0000	60.9187
470.0000	60.8025
469.0000	60.5925
468.0000	60.4719
467.0000	60.5836
466.0000	60.7935
465.0000	60.9754
464.0000	60.9746
463.0000	60.8368
462.0000	60.6954
461.0000	60.6833
460.0000	60.7869
459.0000	60.8696
458.0000	60.8349
457.0000	60.7542
456.0000	60.6523
455.0000	60.5956
454.0000	60.581
453.0000	60.5404
452.0000	60.47
451.0000	60.3638
450.0000	60.2761
449.0000	60.208
448.0000	60.089
447.0000	59.9507
446.0000	59.8317
445.0000	59.7371
444.0000	59.6565
443.0000	59.5477
442.0000	59.3647
441.0000	59.1574
440.0000	59.0433
439.0000	59.0121
438.0000	58.8962
437.0000	58.653
436.0000	58.3525
435.0000	58.1845
434.0000	58.2109
433.0000	58.1724
432.0000	57.9266
431.0000	57.5467
430.0000	57.3328
429.0000	57.3812
428.0000	57.4261
427.0000	57.2074
426.0000	56.7947
425.0000	56.5563
424.0000	56.6498
423.0000	56.7656
422.0000	56.5335
421.0000	56.0905
420.0000	55.391
419.0000	55.5629
418.0000	55.7315
417.0000	55.5262
416.0000	55.211
415.0000	55.2845
414.0000	55.6358
413.0000	55.7131
412.0000	55.4035
411.0000	55.2361
410.0000	55.4742
409.0000	55.7123
408.0000	55.4157
407.0000	55.0429
406.0000	55.1504
405.0000	55.3985
404.0000	55.2492
403.0000	55.0013
402.0000	55.1743
401.0000	55.5494
400.0000	55.5865
399.0000	55.4954
398.0000	55.7476
397.0000	56.0884
396.0000	56.1184
395.0000	56.0972
394.0000	56.2993
393.0000	56.4495
392.0000	56.3753
391.0000	56.3763
390.0000	56.4771
389.0000	56.4767
388.0000	56.4024
387.0000	56.4188
386.0000	56.3773
385.0000	56.2454
384.0000	56.1005
383.0000	55.956
382.0000	55.7487
381.0000	55.4872
380.0000	55.1549
379.0000	54.7433
378.0000	54.2403
377.0000	53.5529
376.0000	52.6904
375.0000	51.3993
374.0000	49.5411
373.0000	46.8666
372.0000	43.1588
371.0000	38.2118
370.0000	29.832
369.0000	23.2437
368.0000	16.7925
367.0000	11.0713
366.0000	6.49838
365.0000	3.26485
364.0000	1.34486
363.0000	0.427931
362.0000	0.104333
361.0000	0.0238728
360.0000	0.00988866
359.0000	0.00624189
358.0000	0.00428018
357.0000	0.00397923
356.0000	0.00367937
355.0000	0.00318923
354.0000	0.00299406
353.0000	0.0027935
352.0000	0.00288943
351.0000	0.00269177
350.0000	0.00249949
349.0000	0.00288307
348.0000	0.00249717
347.0000	0.0025916
346.0000	0.00307774
345.0000	0.00258677
344.0000	0.00229995
343.0000	0.00297922
342.0000	0.00258629
341.0000	0.00200993
340.0000	0.00894607
339.0000	0.00885113
338.0000	0.0086532
337.0000	0.0079449
336.0000	0.00786106
335.0000	0.00858437
334.0000	0.00777667
333.0000	0.00789655
332.0000	0.00698886
331.0000	0.00647836
330.0000	0.00649941
329.0000	0.00620289
328.0000	0.00684674
327.0000	0.00686735
326.0000	0.00551825
325.0000	0.00532294
324.0000	0.00586468
323.0000	0.00566307
322.0000	0.00524559
321.0000	0.00545551
320.0000	0.00536107
319.0000	0.0049285
318.0000	0.00450582
317.0000	0.00450334
316.0000	0.00459468
315.0000	0.00469471
314.0000	0.00426618
313.0000	0.0046828
312.0000	0.00426132
311.0000	0.00435367
310.0000	0.00414813
309.0000	0.00393973
308.0000	0.00415477
307.0000	0.00385345
306.0000	0.00310933
305.0000	0.00427051
304.0000	0.0042791
303.0000	0.00408084
302.0000	0.00398989
301.0000	0.00421248
300.0000	0.00443042
299.0000	0.00433328
298.0000	0.0038001
297.0000	0.00379948
296.0000	0.00369076
295.0000	0.00358787
294.0000	0.00379009
293.0000	0.00315309
292.0000	0.00335623
291.0000	0.00439359
290.0000	0.00364081
289.0000	0.00289801
288.0000	0.00330228
287.0000	0.00317998
286.0000	0.00161751
285.0000	0.0020258
284.0000	0.00273278
283.0000	0.0025192
282.0000	0.00260558
281.0000	0.00229016
280.0000	0.00228529
279.0000	0.00348257
278.0000	0.00327296
277.0000	0.00246145
276.0000	0.00244998
275.0000	0.00165357
274.0000	0.00155081
273.0000	0.00174203
272.0000	0.00174162
271.0000	0.00173846
270.0000	0.00193221
269.0000	0.00213327
268.0000	0.0014441
267.0000	0.00213778
266.0000	0.00232987
265.0000	0.00134613
264.0000	0.00124446
263.0000	0.0020352
262.0000	0.00203485
261.0000	0.00233374
260.0000	0.00144396
259.0000	0.00163757
258.0000	0.00164261
257.0000	0.0021447
256.0000	0.00194509
255.0000	0.00253959
254.0000	0.00204318
253.0000	0.00214746
252.0000	0.00274332
251.0000	0.00214895
250.0000	0.00154697
249.0000	0.000850924
248.0000	0.00224647
247.0000	0.00225315
246.0000	0.00185493
245.0000	0.00196701
244.0000	0.00187142
243.0000	0.00166556
242.0000	0.00126951
241.0000	0.0016768
240.0000	0.00218655
239.0000	0.00167834
238.0000	0.00138072
237.0000	0.00342647
236.0000	0.00364387
235.0000	0.00211312
234.0000	0.00212458
233.0000	0.00254639
232.0000	0.00131039
231.0000	0.00225732
230.0000	0.00352957
229.0000	0.00344093
228.0000	0.00294074
227.0000	0.00317987
226.0000	0.00256738
225.0000	0.00283003
224.0000	0.00266046
223.0000	0.00284406
222.0000	0.00403463
221.0000	0.00399135
220.0000	0.00345461
219.0000	0.00315962
218.0000	0.00498313
217.0000	0.00812866
216.0000	0.00960242
215.0000	0.0127734
214.0000	0.0144802
213.0000	0.0214201
212.0000	0.0337521
211.0000	0.0513477
210.0000	0.0892234
209.0000	0.161813
208.0000	0.401229
207.0000	1.06644
206.0000	2.3837
205.0000	4.05638
204.0000	6.02217
203.0000	6.09728
202.0000	6.8504
201.0000	6.9339
200.0000	6.86158
