TITLE	12.1_H_10
DATA TYPE	ULTRAVIOLET SPECTRUM
ORIGIN	JASCO
OWNER	
DATE	21/04/27
TIME	15:21:33
SPECTROMETER/DATA SYSTEM	
RESOLUTION	
DELTAX	-1
XUNITS	NANOMETERS
YUNITS	TRANSMITTANCE
FIRSTX	 1500.0000
LASTX	  200.0000
NPOINTS	    1301
FIRSTY	    53.57231
MAXY	    62.33471
MINY	    -0.00060
XYDATA
1500.0000	53.5723
1499.0000	53.3666
1498.0000	53.1397
1497.0000	52.9445
1496.0000	52.7421
1495.0000	52.6065
1494.0000	52.5255
1493.0000	52.4111
1492.0000	52.3115
1491.0000	52.2576
1490.0000	52.242
1489.0000	52.2197
1488.0000	52.2305
1487.0000	52.2954
1486.0000	52.3366
1485.0000	52.4506
1484.0000	52.5861
1483.0000	52.7521
1482.0000	52.9054
1481.0000	53.0896
1480.0000	53.3091
1479.0000	53.523
1478.0000	53.7776
1477.0000	54.0779
1476.0000	54.3869
1475.0000	54.6576
1474.0000	55.0131
1473.0000	55.3717
1472.0000	55.7199
1471.0000	56.1033
1470.0000	56.4606
1469.0000	56.8323
1468.0000	57.2123
1467.0000	57.6262
1466.0000	57.9855
1465.0000	58.375
1464.0000	58.7587
1463.0000	59.1426
1462.0000	59.5296
1461.0000	59.8884
1460.0000	60.2422
1459.0000	60.5736
1458.0000	60.8299
1457.0000	61.1327
1456.0000	61.4369
1455.0000	61.6179
1454.0000	61.8025
1453.0000	61.9795
1452.0000	62.1064
1451.0000	62.1825
1450.0000	62.2682
1449.0000	62.3347
1448.0000	62.318
1447.0000	62.2574
1446.0000	62.1916
1445.0000	62.1033
1444.0000	61.9352
1443.0000	61.7464
1442.0000	61.5365
1441.0000	61.2889
1440.0000	61.0351
1439.0000	60.7434
1438.0000	60.4285
1437.0000	60.0907
1436.0000	59.7459
1435.0000	59.3895
1434.0000	59.0336
1433.0000	58.6327
1432.0000	58.219
1431.0000	57.8379
1430.0000	57.4552
1429.0000	57.0211
1428.0000	56.6445
1427.0000	56.2712
1426.0000	55.8916
1425.0000	55.5244
1424.0000	55.1703
1423.0000	54.8458
1422.0000	54.5029
1421.0000	54.186
1420.0000	53.932
1419.0000	53.6723
1418.0000	53.4261
1417.0000	53.233
1416.0000	52.9932
1415.0000	52.8648
1414.0000	52.7856
1413.0000	52.6898
1412.0000	52.6087
1411.0000	52.5967
1410.0000	52.5633
1409.0000	52.5854
1408.0000	52.6
1407.0000	52.7251
1406.0000	52.8326
1405.0000	52.9881
1404.0000	53.1392
1403.0000	53.3707
1402.0000	53.609
1401.0000	53.8566
1400.0000	54.1386
1399.0000	54.4138
1398.0000	54.7397
1397.0000	55.0784
1396.0000	55.4393
1395.0000	55.8599
1394.0000	56.2217
1393.0000	56.66
1392.0000	57.123
1391.0000	57.5676
1390.0000	58.0226
1389.0000	58.4461
1388.0000	58.8647
1387.0000	59.2593
1386.0000	59.6204
1385.0000	59.9753
1384.0000	60.3405
1383.0000	60.6411
1382.0000	60.938
1381.0000	61.2252
1380.0000	61.4703
1379.0000	61.6658
1378.0000	61.835
1377.0000	61.9883
1376.0000	62.1152
1375.0000	62.1576
1374.0000	62.1853
1373.0000	62.1235
1372.0000	62.0336
1371.0000	61.9559
1370.0000	61.8587
1369.0000	61.6512
1368.0000	61.426
1367.0000	61.1502
1366.0000	60.8443
1365.0000	60.5226
1364.0000	60.1689
1363.0000	59.8019
1362.0000	59.3989
1361.0000	59.0367
1360.0000	58.6366
1359.0000	58.1924
1358.0000	57.8588
1357.0000	57.4275
1356.0000	57.0107
1355.0000	56.6185
1354.0000	56.2633
1353.0000	55.9207
1352.0000	55.5784
1351.0000	55.235
1350.0000	54.9552
1349.0000	54.6449
1348.0000	54.3837
1347.0000	54.1471
1346.0000	53.9232
1345.0000	53.7355
1344.0000	53.6098
1343.0000	53.4957
1342.0000	53.4132
1341.0000	53.3458
1340.0000	53.3542
1339.0000	53.3916
1338.0000	53.4188
1337.0000	53.5049
1336.0000	53.657
1335.0000	53.8401
1334.0000	54.0158
1333.0000	54.2207
1332.0000	54.4923
1331.0000	54.7722
1330.0000	55.0444
1329.0000	55.3929
1328.0000	55.7608
1327.0000	56.1199
1326.0000	56.5368
1325.0000	56.9051
1324.0000	57.3283
1323.0000	57.7781
1322.0000	58.1716
1321.0000	58.5748
1320.0000	58.972
1319.0000	59.3845
1318.0000	59.7931
1317.0000	60.1989
1316.0000	60.5393
1315.0000	60.8425
1314.0000	61.1099
1313.0000	61.3578
1312.0000	61.5736
1311.0000	61.7542
1310.0000	61.8854
1309.0000	61.996
1308.0000	62.0516
1307.0000	62.0651
1306.0000	62.0193
1305.0000	61.9481
1304.0000	61.8242
1303.0000	61.6498
1302.0000	61.421
1301.0000	61.1906
1300.0000	60.9584
1299.0000	60.6567
1298.0000	60.3257
1297.0000	59.9475
1296.0000	59.5516
1295.0000	59.1595
1294.0000	58.7819
1293.0000	58.3933
1292.0000	57.964
1291.0000	57.5363
1290.0000	57.1309
1289.0000	56.7515
1288.0000	56.3396
1287.0000	55.9912
1286.0000	55.6335
1285.0000	55.3156
1284.0000	55.0089
1283.0000	54.7282
1282.0000	54.549
1281.0000	54.3535
1280.0000	54.205
1279.0000	54.0711
1278.0000	53.9879
1277.0000	53.9316
1276.0000	53.9218
1275.0000	53.9801
1274.0000	54.0477
1273.0000	54.1338
1272.0000	54.2826
1271.0000	54.4748
1270.0000	54.7427
1269.0000	54.9808
1268.0000	55.2673
1267.0000	55.5729
1266.0000	55.9237
1265.0000	56.2812
1264.0000	56.6707
1263.0000	57.1116
1262.0000	57.5495
1261.0000	57.9735
1260.0000	58.3863
1259.0000	58.8247
1258.0000	59.2384
1257.0000	59.635
1256.0000	60.0172
1255.0000	60.3791
1254.0000	60.7289
1253.0000	61.0199
1252.0000	61.2777
1251.0000	61.5114
1250.0000	61.7005
1249.0000	61.8277
1248.0000	61.938
1247.0000	61.983
1246.0000	61.9625
1245.0000	61.9177
1244.0000	61.816
1243.0000	61.6646
1242.0000	61.4876
1241.0000	61.2484
1240.0000	60.9766
1239.0000	60.623
1238.0000	60.33
1237.0000	59.9773
1236.0000	59.5959
1235.0000	59.1841
1234.0000	58.7735
1233.0000	58.3805
1232.0000	57.9637
1231.0000	57.5823
1230.0000	57.1935
1229.0000	56.7969
1228.0000	56.4225
1227.0000	56.1093
1226.0000	55.7693
1225.0000	55.5142
1224.0000	55.2607
1223.0000	55.0541
1222.0000	54.8911
1221.0000	54.7798
1220.0000	54.664
1219.0000	54.6292
1218.0000	54.628
1217.0000	54.6685
1216.0000	54.7885
1215.0000	54.9102
1214.0000	55.0875
1213.0000	55.3331
1212.0000	55.5628
1211.0000	55.841
1210.0000	56.1546
1209.0000	56.5207
1208.0000	56.8559
1207.0000	57.2272
1206.0000	57.643
1205.0000	58.0524
1204.0000	58.4551
1203.0000	58.87
1202.0000	59.2322
1201.0000	59.6354
1200.0000	60.1219
1199.0000	60.4588
1198.0000	60.778
1197.0000	61.0594
1196.0000	61.312
1195.0000	61.5051
1194.0000	61.6368
1193.0000	61.6882
1192.0000	61.7512
1191.0000	61.7486
1190.0000	61.6745
1189.0000	61.5608
1188.0000	61.3879
1187.0000	61.1969
1186.0000	60.9491
1185.0000	60.6548
1184.0000	60.3451
1183.0000	60.0161
1182.0000	59.6489
1181.0000	59.2666
1180.0000	58.9011
1179.0000	58.5276
1178.0000	58.1076
1177.0000	57.7178
1176.0000	57.3778
1175.0000	57.0216
1174.0000	56.7127
1173.0000	56.4344
1172.0000	56.1606
1171.0000	55.9489
1170.0000	55.7442
1169.0000	55.6223
1168.0000	55.5447
1167.0000	55.4686
1166.0000	55.4641
1165.0000	55.4959
1164.0000	55.6218
1163.0000	55.7769
1162.0000	55.979
1161.0000	56.1998
1160.0000	56.4741
1159.0000	56.7639
1158.0000	57.0721
1157.0000	57.4254
1156.0000	57.8244
1155.0000	58.218
1154.0000	58.5766
1153.0000	58.9512
1152.0000	59.3451
1151.0000	59.7206
1150.0000	60.0657
1149.0000	60.38
1148.0000	60.6663
1147.0000	60.9011
1146.0000	61.0878
1145.0000	61.2652
1144.0000	61.3826
1143.0000	61.4247
1142.0000	61.4086
1141.0000	61.4
1140.0000	61.2852
1139.0000	61.1307
1138.0000	60.9249
1137.0000	60.6842
1136.0000	60.456
1135.0000	60.1325
1134.0000	59.7843
1133.0000	59.4239
1132.0000	59.0486
1131.0000	58.6614
1130.0000	58.3063
1129.0000	57.9311
1128.0000	57.5815
1127.0000	57.2062
1126.0000	56.8871
1125.0000	56.6148
1124.0000	56.3125
1123.0000	56.1112
1122.0000	55.9404
1121.0000	55.8411
1120.0000	55.7601
1119.0000	55.7345
1118.0000	55.7362
1117.0000	55.822
1116.0000	55.9642
1115.0000	56.0975
1114.0000	56.3273
1113.0000	56.5845
1112.0000	56.9135
1111.0000	57.2084
1110.0000	57.5638
1109.0000	57.9001
1108.0000	58.2834
1107.0000	58.5963
1106.0000	58.956
1105.0000	59.3487
1104.0000	59.6671
1103.0000	59.9656
1102.0000	60.2273
1101.0000	60.4793
1100.0000	60.6695
1099.0000	60.7949
1098.0000	60.9181
1097.0000	60.9882
1096.0000	60.9786
1095.0000	60.8892
1094.0000	60.764
1093.0000	60.601
1092.0000	60.4044
1091.0000	60.1618
1090.0000	59.874
1089.0000	59.5602
1088.0000	59.2154
1087.0000	58.8488
1086.0000	58.5017
1085.0000	58.1298
1084.0000	57.7399
1083.0000	57.3957
1082.0000	57.0791
1081.0000	56.8049
1080.0000	56.5296
1079.0000	56.308
1078.0000	56.1428
1077.0000	56.002
1076.0000	55.9541
1075.0000	55.9594
1074.0000	55.9488
1073.0000	56.0213
1072.0000	56.152
1071.0000	56.3345
1070.0000	56.5705
1069.0000	56.8275
1068.0000	57.1117
1067.0000	57.4257
1066.0000	57.7554
1065.0000	58.1155
1064.0000	58.4215
1063.0000	58.7822
1062.0000	59.1208
1061.0000	59.4433
1060.0000	59.6876
1059.0000	59.9171
1058.0000	60.1156
1057.0000	60.2886
1056.0000	60.3918
1055.0000	60.4121
1054.0000	60.3959
1053.0000	60.3186
1052.0000	60.1831
1051.0000	60.0318
1050.0000	59.8001
1049.0000	59.5279
1048.0000	59.2241
1047.0000	58.9343
1046.0000	58.6017
1045.0000	58.1891
1044.0000	57.8746
1043.0000	57.5705
1042.0000	57.2054
1041.0000	56.9155
1040.0000	56.637
1039.0000	56.3892
1038.0000	56.1908
1037.0000	56.0585
1036.0000	55.9317
1035.0000	55.9021
1034.0000	55.8995
1033.0000	55.9528
1032.0000	56.0546
1031.0000	56.2652
1030.0000	56.4828
1029.0000	56.73
1028.0000	57.041
1027.0000	57.3744
1026.0000	57.6827
1025.0000	57.969
1024.0000	58.3035
1023.0000	58.6003
1022.0000	58.9015
1021.0000	59.1459
1020.0000	59.3675
1019.0000	59.5445
1018.0000	59.6572
1017.0000	59.7322
1016.0000	59.7074
1015.0000	59.6066
1014.0000	59.5195
1013.0000	59.36
1012.0000	59.1374
1011.0000	58.8931
1010.0000	58.6077
1009.0000	58.2893
1008.0000	57.9213
1007.0000	57.5805
1006.0000	57.2236
1005.0000	56.8664
1004.0000	56.5207
1003.0000	56.2538
1002.0000	56.0102
1001.0000	55.752
1000.0000	55.6175
999.0000	55.5578
998.0000	55.5171
997.0000	55.5024
996.0000	55.5523
995.0000	55.7023
994.0000	55.9044
993.0000	56.1203
992.0000	56.3743
991.0000	56.6991
990.0000	57.0626
989.0000	57.3209
988.0000	57.6235
987.0000	57.9396
986.0000	58.1977
985.0000	58.4853
984.0000	58.6421
983.0000	58.8047
982.0000	58.9492
981.0000	59.0027
980.0000	58.9442
979.0000	58.8787
978.0000	58.726
977.0000	58.5045
976.0000	58.286
975.0000	57.9937
974.0000	57.6748
973.0000	57.3989
972.0000	57.0844
971.0000	56.7043
970.0000	56.3603
969.0000	56.0024
968.0000	55.7191
967.0000	55.4504
966.0000	55.3072
965.0000	55.1989
964.0000	55.0816
963.0000	55.0386
962.0000	55.054
961.0000	55.1574
960.0000	55.3082
959.0000	55.4948
958.0000	55.7504
957.0000	56.025
956.0000	56.358
955.0000	56.6035
954.0000	56.9592
953.0000	57.2776
952.0000	57.5577
951.0000	57.7809
950.0000	57.9274
949.0000	58.0917
948.0000	58.1309
947.0000	58.1377
946.0000	58.079
945.0000	57.9951
944.0000	57.8147
943.0000	57.5412
942.0000	57.2796
941.0000	57.0154
940.0000	56.6741
939.0000	56.3885
938.0000	55.9841
937.0000	55.6551
936.0000	55.4184
935.0000	55.168
934.0000	54.8908
933.0000	54.6514
932.0000	54.556
931.0000	54.4878
930.0000	54.5393
929.0000	54.5547
928.0000	54.6462
927.0000	54.9243
926.0000	55.2031
925.0000	55.4617
924.0000	55.747
923.0000	55.9582
922.0000	56.2394
921.0000	56.5816
920.0000	56.8287
919.0000	56.9778
918.0000	57.0772
917.0000	57.1862
916.0000	57.2963
915.0000	57.1788
914.0000	57.1234
913.0000	56.9797
912.0000	56.8246
911.0000	56.5468
910.0000	56.135
909.0000	55.9056
908.0000	55.6418
907.0000	55.2595
906.0000	54.9848
905.0000	54.6641
904.0000	54.3299
903.0000	54.1986
902.0000	54.1007
901.0000	53.9019
900.0000	52.4801
899.0000	51.6644
898.0000	51.2658
897.0000	50.632
896.0000	50.1272
895.0000	49.9612
894.0000	49.973
893.0000	50.1446
892.0000	50.6445
891.0000	51.1302
890.0000	51.708
889.0000	52.4812
888.0000	53.3465
887.0000	54.195
886.0000	55.0636
885.0000	55.873
884.0000	56.7391
883.0000	57.3749
882.0000	57.8068
881.0000	57.9364
880.0000	57.9251
879.0000	57.7426
878.0000	57.1563
877.0000	56.4995
876.0000	55.7109
875.0000	54.7278
874.0000	53.7437
873.0000	52.7627
872.0000	51.7363
871.0000	50.8285
870.0000	50.0213
869.0000	49.4378
868.0000	48.9908
867.0000	48.7362
866.0000	48.7142
865.0000	48.8873
864.0000	49.2141
863.0000	49.7707
862.0000	50.4676
861.0000	51.2812
860.0000	52.2087
859.0000	53.2504
858.0000	54.2436
857.0000	55.2103
856.0000	56.0491
855.0000	56.6878
854.0000	57.0994
853.0000	57.2818
852.0000	57.1926
851.0000	56.7826
850.0000	56.1755
849.0000	55.3582
848.0000	54.3674
847.0000	53.3071
846.0000	52.217
845.0000	51.1727
844.0000	50.191
843.0000	49.381
842.0000	48.7508
841.0000	48.3097
840.0000	48.0982
839.0000	48.1309
838.0000	48.4067
837.0000	48.9026
836.0000	49.6166
835.0000	50.4984
834.0000	51.5209
833.0000	52.6119
832.0000	53.7337
831.0000	54.7979
830.0000	55.702
829.0000	56.4507
828.0000	56.9425
827.0000	57.0911
826.0000	56.9619
825.0000	56.5086
824.0000	55.7635
823.0000	54.8164
822.0000	53.7318
821.0000	52.5562
820.0000	51.3491
819.0000	50.2471
818.0000	49.2989
817.0000	48.5168
816.0000	47.9885
815.0000	47.7167
814.0000	47.7376
813.0000	48.0259
812.0000	48.5856
811.0000	49.3592
810.0000	50.3439
809.0000	51.4601
808.0000	52.6578
807.0000	53.8553
806.0000	54.9644
805.0000	55.8812
804.0000	56.543
803.0000	56.8638
802.0000	56.8004
801.0000	56.3917
800.0000	55.645
799.0000	54.6274
798.0000	53.441
797.0000	52.2033
796.0000	50.9698
795.0000	49.8402
794.0000	48.8884
793.0000	48.1866
792.0000	47.7697
791.0000	47.6538
790.0000	47.8533
789.0000	48.3721
788.0000	49.1824
787.0000	50.1818
786.0000	51.3558
785.0000	52.6188
784.0000	53.8641
783.0000	55.0084
782.0000	55.9291
781.0000	56.5663
780.0000	56.7931
779.0000	56.6395
778.0000	56.112
777.0000	55.2282
776.0000	54.111
775.0000	52.8615
774.0000	51.5723
773.0000	50.3587
772.0000	49.3256
771.0000	48.5323
770.0000	48.0411
769.0000	47.8784
768.0000	48.0558
767.0000	48.5623
766.0000	49.3733
765.0000	50.4608
764.0000	51.7326
763.0000	53.0671
762.0000	54.3775
761.0000	55.5468
760.0000	56.4234
759.0000	56.9198
758.0000	56.9739
757.0000	56.6118
756.0000	55.8397
755.0000	54.7721
754.0000	53.5036
753.0000	52.1685
752.0000	50.903
751.0000	49.8171
750.0000	48.9979
749.0000	48.5202
748.0000	48.4237
747.0000	48.6968
746.0000	49.3608
745.0000	50.3304
744.0000	51.5643
743.0000	52.963
742.0000	54.3533
741.0000	55.6207
740.0000	56.5439
739.0000	57.1514
738.0000	57.3233
737.0000	57.0028
736.0000	56.2322
735.0000	55.1495
734.0000	53.8853
733.0000	52.5654
732.0000	51.329
731.0000	50.3176
730.0000	49.6132
729.0000	49.2792
728.0000	49.3493
727.0000	49.8208
726.0000	50.6707
725.0000	51.8144
724.0000	53.1403
723.0000	54.5403
722.0000	55.8431
721.0000	56.904
720.0000	57.5603
719.0000	57.765
718.0000	57.4831
717.0000	56.755
716.0000	55.6832
715.0000	54.3807
714.0000	53.0393
713.0000	51.8343
712.0000	50.9027
711.0000	50.3327
710.0000	50.1999
709.0000	50.5042
708.0000	51.2451
707.0000	52.3215
706.0000	53.6197
705.0000	55.026
704.0000	56.3497
703.0000	57.3984
702.0000	58.0368
701.0000	58.1696
700.0000	57.7765
699.0000	56.9589
698.0000	55.8293
697.0000	54.5746
696.0000	53.3628
695.0000	52.314
694.0000	51.559
693.0000	51.1839
692.0000	51.2109
691.0000	51.6711
690.0000	52.5263
689.0000	53.6904
688.0000	55.01
687.0000	56.3173
686.0000	57.4502
685.0000	58.23
684.0000	58.5306
683.0000	58.3155
682.0000	57.6105
681.0000	56.5037
680.0000	55.2357
679.0000	54.004
678.0000	53.0244
677.0000	52.4362
676.0000	52.2744
675.0000	52.5483
674.0000	53.293
673.0000	54.3601
672.0000	55.6024
671.0000	56.8596
670.0000	57.9147
669.0000	58.61
668.0000	58.8166
667.0000	58.5113
666.0000	57.7551
665.0000	56.6754
664.0000	55.477
663.0000	54.3721
662.0000	53.5216
661.0000	53.0917
660.0000	53.1153
659.0000	53.6034
658.0000	54.4856
657.0000	55.6171
656.0000	56.8101
655.0000	57.8914
654.0000	58.6398
653.0000	58.8872
652.0000	58.6255
651.0000	57.8894
650.0000	56.866
649.0000	55.7495
648.0000	54.7282
647.0000	53.9769
646.0000	53.6461
645.0000	53.7873
644.0000	54.3938
643.0000	55.3413
642.0000	56.4773
641.0000	57.5749
640.0000	58.3923
639.0000	58.7675
638.0000	58.6483
637.0000	58.0501
636.0000	57.1107
635.0000	56.0096
634.0000	55.001
633.0000	54.2653
632.0000	53.933
631.0000	54.0953
630.0000	54.7249
629.0000	55.6702
628.0000	56.7387
627.0000	57.7142
626.0000	58.3578
625.0000	58.5555
624.0000	58.2415
623.0000	57.4694
622.0000	56.4543
621.0000	55.3957
620.0000	54.529
619.0000	54.0249
618.0000	54.0119
617.0000	54.4879
616.0000	55.3306
615.0000	56.3827
614.0000	57.3887
613.0000	58.0863
612.0000	58.2926
611.0000	57.9553
610.0000	57.1637
609.0000	56.1118
608.0000	55.0454
607.0000	54.2088
606.0000	53.7931
605.0000	53.917
604.0000	54.5411
603.0000	55.5213
602.0000	56.6062
601.0000	57.4899
600.0000	57.8813
599.0000	57.7341
598.0000	57.031
597.0000	55.9724
596.0000	54.8104
595.0000	53.8654
594.0000	53.3881
593.0000	53.4964
592.0000	54.1622
591.0000	55.2015
590.0000	56.3179
589.0000	57.1534
588.0000	57.4988
587.0000	57.2197
586.0000	56.3692
585.0000	55.2151
584.0000	54.0524
583.0000	53.2075
582.0000	52.8842
581.0000	53.2222
580.0000	54.0943
579.0000	55.2328
578.0000	56.2825
577.0000	56.9134
576.0000	56.9246
575.0000	56.3295
574.0000	55.2584
573.0000	54.0046
572.0000	52.9581
571.0000	52.4569
570.0000	52.6597
569.0000	53.4881
568.0000	54.6391
567.0000	55.7422
566.0000	56.4254
565.0000	56.4371
564.0000	55.7876
563.0000	54.6598
562.0000	53.415
561.0000	52.4431
560.0000	52.0972
559.0000	52.4899
558.0000	53.4689
557.0000	54.6826
556.0000	55.6825
555.0000	56.1104
554.0000	55.7868
553.0000	54.8339
552.0000	53.5639
551.0000	52.4628
550.0000	51.9445
549.0000	52.2053
548.0000	53.1424
547.0000	54.3666
546.0000	55.4161
545.0000	55.8814
544.0000	55.6001
543.0000	54.681
542.0000	53.4778
541.0000	52.4638
540.0000	52.0639
539.0000	52.4566
538.0000	53.4654
537.0000	54.6796
536.0000	55.5775
535.0000	55.8158
534.0000	55.3348
533.0000	54.3356
532.0000	53.2466
531.0000	52.5472
530.0000	52.5922
529.0000	53.3845
528.0000	54.5503
527.0000	55.5923
526.0000	56.074
525.0000	55.8581
524.0000	55.034
523.0000	54.0263
522.0000	53.3275
521.0000	53.3074
520.0000	54.0439
519.0000	55.1658
518.0000	56.1488
517.0000	56.5906
516.0000	56.3427
515.0000	55.5896
514.0000	54.7465
513.0000	54.27
512.0000	54.4788
511.0000	55.3394
510.0000	56.3941
509.0000	57.1516
508.0000	57.2742
507.0000	56.8123
506.0000	56.0745
505.0000	55.528
504.0000	55.5676
503.0000	56.2165
502.0000	57.1733
501.0000	57.9007
500.0000	58.1071
499.0000	57.7766
498.0000	57.1804
497.0000	56.78
496.0000	56.8757
495.0000	57.4774
494.0000	58.2461
493.0000	58.7912
492.0000	58.8775
491.0000	58.5303
490.0000	58.0985
489.0000	57.9333
488.0000	58.2008
487.0000	58.7644
486.0000	59.3012
485.0000	59.5415
484.0000	59.3994
483.0000	59.083
482.0000	58.8843
481.0000	58.9918
480.0000	59.3613
479.0000	59.7649
478.0000	59.9584
477.0000	59.8834
476.0000	59.6745
475.0000	59.5515
474.0000	59.6352
473.0000	59.8763
472.0000	60.0915
471.0000	60.1682
470.0000	60.0527
469.0000	59.9253
468.0000	59.8996
467.0000	59.9942
466.0000	60.1
465.0000	60.1004
464.0000	60.0283
463.0000	59.923
462.0000	59.8928
461.0000	59.8963
460.0000	59.8896
459.0000	59.8242
458.0000	59.7111
457.0000	59.6381
456.0000	59.6216
455.0000	59.5981
454.0000	59.474
453.0000	59.3036
452.0000	59.1697
451.0000	59.1204
450.0000	59.1553
449.0000	59.1397
448.0000	58.9341
447.0000	58.6643
446.0000	58.474
445.0000	58.4743
444.0000	58.567
443.0000	58.5061
442.0000	58.1677
441.0000	57.7996
440.0000	57.6749
439.0000	57.8071
438.0000	57.8988
437.0000	57.6835
436.0000	57.2002
435.0000	56.8406
434.0000	56.9072
433.0000	57.1262
432.0000	57.0212
431.0000	56.4949
430.0000	56.0104
429.0000	55.9629
428.0000	56.1831
427.0000	56.1025
426.0000	55.5783
425.0000	55.0897
424.0000	55.081
423.0000	55.3409
422.0000	55.2364
421.0000	54.6799
420.0000	54.2972
419.0000	54.4686
418.0000	54.8749
417.0000	54.7777
416.0000	54.2134
415.0000	53.9613
414.0000	54.3305
413.0000	54.6182
412.0000	54.2751
411.0000	53.8053
410.0000	53.9549
409.0000	54.4542
408.0000	54.4127
407.0000	53.9845
406.0000	54.0022
405.0000	54.5276
404.0000	54.6589
403.0000	54.3565
402.0000	54.4007
401.0000	54.8675
400.0000	55.0076
399.0000	54.7693
398.0000	54.8327
397.0000	55.1859
396.0000	55.261
395.0000	55.0907
394.0000	55.2155
393.0000	55.468
392.0000	55.446
391.0000	55.3882
390.0000	55.4891
389.0000	55.5543
388.0000	55.4658
387.0000	55.4143
386.0000	55.4208
385.0000	55.2944
384.0000	55.1127
383.0000	54.9793
382.0000	54.7597
381.0000	54.472
380.0000	54.149
379.0000	53.765
378.0000	53.2784
377.0000	52.6268
376.0000	51.794
375.0000	50.6448
374.0000	48.9725
373.0000	46.5645
372.0000	43.1817
371.0000	38.7183
370.0000	31.2177
369.0000	24.81
368.0000	18.4244
367.0000	12.6828
366.0000	7.92355
365.0000	4.32298
364.0000	1.96503
363.0000	0.702278
362.0000	0.188448
361.0000	0.0389912
360.0000	0.00931375
359.0000	0.00416358
358.0000	0.00283207
357.0000	0.00238671
356.0000	0.00167764
355.0000	0.00106257
354.0000	0.00185114
353.0000	0.00158261
352.0000	0.00105618
351.0000	0.00114608
350.0000	0.000448852
349.0000	-0.000516475
348.0000	0.000532299
347.0000	0.000534388
346.0000	0.000358099
345.0000	0.000271938
344.0000	9.40752E-005
343.0000	0.000614994
342.0000	-0.00060329
341.0000	-0.000169661
340.0000	0.00681805
339.0000	0.00689536
338.0000	0.00646048
337.0000	0.00662729
336.0000	0.00584254
335.0000	0.00547854
334.0000	0.00564699
333.0000	0.00485849
332.0000	0.00476413
331.0000	0.00509791
330.0000	0.0043969
329.0000	0.00490855
328.0000	0.004722
327.0000	0.00444857
326.0000	0.00366718
325.0000	0.00400041
324.0000	0.00348849
323.0000	0.00356566
322.0000	0.00355604
321.0000	0.00269924
320.0000	0.00329532
319.0000	0.00287464
318.0000	0.00253603
317.0000	0.00295897
316.0000	0.00237392
315.0000	0.00237944
314.0000	0.00246708
313.0000	0.00290837
312.0000	0.00274594
311.0000	0.00189052
310.0000	0.00224267
309.0000	0.00164057
308.0000	0.00130112
307.0000	0.00173909
306.0000	0.00208799
305.0000	0.00217655
304.0000	0.00200793
303.0000	0.00210101
302.0000	0.00244554
301.0000	0.00174853
300.0000	0.00183576
299.0000	0.00157792
298.0000	0.00166696
297.0000	0.00113909
296.0000	0.00148933
295.0000	0.00131626
294.0000	0.00219051
293.0000	0.00140789
292.0000	0.0015005
291.0000	0.00132557
290.0000	0.000975201
289.0000	0.000624945
288.0000	0.000808319
287.0000	0.00125277
286.0000	0.00152734
285.0000	0.00126275
284.0000	0.000544851
283.0000	-0.000178135
282.0000	0.000914366
281.0000	0.00174777
280.0000	0.000920438
279.0000	0.000554322
278.0000	0.000932662
277.0000	0.000467752
276.0000	0.000378633
275.0000	0.000187026
274.0000	9.35895E-005
273.0000	0.000283376
272.0000	0.000189653
271.0000	0.000483216
270.0000	0.00125684
269.0000	-0.000482894
268.0000	-0.000584471
267.0000	9.82572E-007
266.0000	0.000297129
265.0000	-0.000290638
264.0000	-0.000490371
263.0000	0.000200181
262.0000	2.44755E-006
261.0000	-0.000296996
260.0000	9.6248E-005
259.0000	0.000102937
258.0000	-0.000489195
257.0000	0.000401288
256.0000	4.92734E-006
255.0000	-0.00029124
254.0000	-9.48322E-005
253.0000	-2.42693E-006
252.0000	0.000496056
251.0000	-9.66021E-005
250.0000	-0.000198563
249.0000	1.85832E-007
248.0000	-0.00029414
247.0000	-0.000597214
246.0000	-0.000296005
245.0000	0.000198349
244.0000	0.00110825
243.0000	0.00141684
242.0000	0.00111643
241.0000	0.000206691
240.0000	3.22172E-006
239.0000	0.000527376
238.0000	0.000738301
237.0000	0.000327775
236.0000	0.000759885
235.0000	0.000442177
234.0000	0.000556975
233.0000	0.000565103
232.0000	0.000345898
231.0000	6.71121E-006
230.0000	0.000127215
229.0000	0.000245299
228.0000	0.000953928
227.0000	0.000128194
226.0000	-0.000107178
225.0000	0.000759285
224.0000	1.47741E-005
223.0000	0.00105215
222.0000	0.00148377
221.0000	0.00224672
220.0000	0.00208247
219.0000	0.00112902
218.0000	0.00315886
217.0000	0.00355013
216.0000	0.00275573
215.0000	0.00383019
214.0000	0.00575017
213.0000	0.0108581
212.0000	0.0198099
211.0000	0.0282239
210.0000	0.0432529
209.0000	0.113587
208.0000	0.212135
207.0000	0.417267
206.0000	0.937237
205.0000	2.04509
204.0000	3.10093
203.0000	4.22697
202.0000	5.30576
201.0000	5.09774
200.0000	5.85708
