TITLE	p-GaN
DATA TYPE	ULTRAVIOLET SPECTRUM
ORIGIN	JASCO
OWNER	
DATE	21/05/05
TIME	17:52:36
SPECTROMETER/DATA SYSTEM	
RESOLUTION	
DELTAX	-0.1
XUNITS	NANOMETERS
YUNITS	TRANSMITTANCE
FIRSTX	  850.0000
LASTX	  300.0000
NPOINTS	    5501
FIRSTY	    77.49433
MAXY	    77.74112
MINY	     0.11690
XYDATA
850.0000	77.4943
849.9000	77.4012
849.8000	76.9879
849.7000	77.0359
849.6000	77.2141
849.5000	77.1137
849.4000	76.7583
849.3000	76.7443
849.2000	77.045
849.1000	77.0447
849.0000	77.1621
848.9000	77.1859
848.8000	77.177
848.7000	77.0907
848.6000	77.1678
848.5000	77.0809
848.4000	76.984
848.3000	77.0225
848.2000	77.3968
848.1000	77.3495
848.0000	77.2099
847.9000	77.1862
847.8000	77.4705
847.7000	77.5197
847.6000	77.5405
847.5000	77.3075
847.4000	77.2821
847.3000	77.5023
847.2000	77.6066
847.1000	77.6923
847.0000	77.6245
846.9000	77.6299
846.8000	77.7411
846.7000	77.6347
846.6000	77.4731
846.5000	77.4941
846.4000	77.5209
846.3000	77.6197
846.2000	77.3352
846.1000	77.3758
846.0000	77.1729
845.9000	77.3391
845.8000	77.2847
845.7000	76.9182
845.6000	76.791
845.5000	76.6289
845.4000	76.786
845.3000	76.717
845.2000	76.6505
845.1000	76.6167
845.0000	76.4962
844.9000	76.2603
844.8000	76.1897
844.7000	75.9471
844.6000	76.2031
844.5000	76.2341
844.4000	76.1846
844.3000	75.8811
844.2000	75.8321
844.1000	76.1844
844.0000	76.3649
843.9000	76.1743
843.8000	76.1278
843.7000	75.9784
843.6000	76.0725
843.5000	76.1869
843.4000	76.1055
843.3000	76.1863
843.2000	76.2488
843.1000	76.4485
843.0000	76.0929
842.9000	75.7797
842.8000	75.7398
842.7000	76.0676
842.6000	76.0759
842.5000	75.6849
842.4000	75.4559
842.3000	75.7817
842.2000	75.6842
842.1000	75.6971
842.0000	75.2581
841.9000	75.2846
841.8000	75.4298
841.7000	75.2633
841.6000	74.993
841.5000	74.6628
841.4000	74.8281
841.3000	75.1736
841.2000	75.177
841.1000	74.9186
841.0000	74.884
840.9000	75.0491
840.8000	75.0839
840.7000	74.7169
840.6000	74.5698
840.5000	74.5621
840.4000	74.8951
840.3000	74.8519
840.2000	74.4524
840.1000	74.3003
840.0000	74.5513
839.9000	74.812
839.8000	74.6598
839.7000	74.2705
839.6000	74.3194
839.5000	74.5447
839.4000	74.5965
839.3000	74.3283
839.2000	74.184
839.1000	74.505
839.0000	74.7006
838.9000	74.723
838.8000	74.3612
838.7000	74.2345
838.6000	74.7608
838.5000	74.9649
838.4000	74.6678
838.3000	74.496
838.2000	74.6567
838.1000	74.8823
838.0000	74.7654
837.9000	74.5771
837.8000	74.4797
837.7000	74.8124
837.6000	74.8659
837.5000	74.5639
837.4000	74.3249
837.3000	74.2439
837.2000	74.6657
837.1000	74.6412
837.0000	74.255
836.9000	74.276
836.8000	74.6312
836.7000	74.7028
836.6000	74.4218
836.5000	74.2029
836.4000	74.4435
836.3000	74.5978
836.2000	74.6088
836.1000	74.2837
836.0000	74.396
835.9000	74.6114
835.8000	74.8464
835.7000	74.7322
835.6000	74.4403
835.5000	74.6578
835.4000	75.0031
835.3000	74.9676
835.2000	74.6038
835.1000	74.6278
835.0000	74.9885
834.9000	75.1231
834.8000	74.8022
834.7000	74.6218
834.6000	74.7639
834.5000	75.0233
834.4000	74.9495
834.3000	74.7645
834.2000	74.7146
834.1000	75.0632
834.0000	75.2649
833.9000	75.0113
833.8000	74.7007
833.7000	74.906
833.6000	75.1767
833.5000	75.1122
833.4000	74.8331
833.3000	74.943
833.2000	75.2367
833.1000	75.2866
833.0000	75.1677
832.9000	75.0598
832.8000	75.2865
832.7000	75.6272
832.6000	75.6139
832.5000	75.2031
832.4000	75.1268
832.3000	75.313
832.2000	75.4682
832.1000	75.0762
832.0000	75.0132
831.9000	75.1551
831.8000	75.4759
831.7000	75.2537
831.6000	74.9666
831.5000	74.9601
831.4000	75.0836
831.3000	75.2372
831.2000	75.0443
831.1000	74.7254
831.0000	74.8018
830.9000	75.2075
830.8000	75.3027
830.7000	75.0461
830.6000	75.0116
830.5000	75.4497
830.4000	75.62
830.3000	75.5236
830.2000	75.2238
830.1000	75.5053
830.0000	75.871
829.9000	75.905
829.8000	75.7561
829.7000	75.5917
829.6000	75.8374
829.5000	75.998
829.4000	75.9346
829.3000	75.7443
829.2000	75.8317
829.1000	76.1574
829.0000	76.2982
828.9000	76.0288
828.8000	75.8626
828.7000	75.9937
828.6000	76.205
828.5000	75.9585
828.4000	75.7801
828.3000	75.9365
828.2000	76.1516
828.1000	76.1504
828.0000	76.0332
827.9000	76.1444
827.8000	76.1402
827.7000	76.155
827.6000	76.0045
827.5000	75.8593
827.4000	75.8198
827.3000	76.0798
827.2000	76.1391
827.1000	75.9693
827.0000	76.1063
826.9000	76.3274
826.8000	76.402
826.7000	76.2956
826.6000	76.2119
826.5000	76.4315
826.4000	76.5654
826.3000	76.3212
826.2000	76.4185
826.1000	76.5719
826.0000	76.8087
825.9000	76.8023
825.8000	76.7967
825.7000	76.6407
825.6000	76.8543
825.5000	77.0869
825.4000	76.9582
825.3000	77.0789
825.2000	77.2956
825.1000	77.4078
825.0000	77.3523
824.9000	77.3255
824.8000	77.1871
824.7000	77.3465
824.6000	77.1928
824.5000	77.0998
824.4000	77.1633
824.3000	77.3663
824.2000	77.4731
824.1000	77.4128
824.0000	77.2247
823.9000	77.2835
823.8000	77.2886
823.7000	77.1588
823.6000	76.9692
823.5000	76.9832
823.4000	77.0733
823.3000	77.0442
823.2000	76.9084
823.1000	77.0782
823.0000	77.269
822.9000	77.4182
822.8000	77.0309
822.7000	76.9564
822.6000	76.9993
822.5000	77.2041
822.4000	77.2344
822.3000	76.9965
822.2000	77.0368
822.1000	77.0859
822.0000	77.0933
821.9000	76.9441
821.8000	76.9524
821.7000	77.0491
821.6000	77.2535
821.5000	77.0515
821.4000	76.8959
821.3000	76.8261
821.2000	76.9809
821.1000	76.7993
821.0000	76.6035
820.9000	76.5574
820.8000	76.7073
820.7000	76.8038
820.6000	76.641
820.5000	76.5394
820.4000	76.6903
820.3000	76.7159
820.2000	76.6141
820.1000	76.4198
820.0000	76.4181
819.9000	76.3778
819.8000	76.4431
819.7000	76.3502
819.6000	76.4285
819.5000	76.5727
819.4000	76.6391
819.3000	76.4729
819.2000	76.4257
819.1000	76.4763
819.0000	76.6002
818.9000	76.4728
818.8000	76.4143
818.7000	76.5409
818.6000	76.6311
818.5000	76.5613
818.4000	76.4792
818.3000	76.734
818.2000	76.7677
818.1000	76.6345
818.0000	76.6133
817.9000	76.5978
817.8000	76.6087
817.7000	76.6516
817.6000	76.436
817.5000	76.3469
817.4000	76.358
817.3000	76.4042
817.2000	76.1089
817.1000	75.9711
817.0000	75.9971
816.9000	76.0644
816.8000	75.8906
816.7000	75.6371
816.6000	75.6447
816.5000	75.8071
816.4000	75.7708
816.3000	75.5547
816.2000	75.6159
816.1000	75.8473
816.0000	75.835
815.9000	75.6324
815.8000	75.5498
815.7000	75.8255
815.6000	75.9045
815.5000	75.6602
815.4000	75.3842
815.3000	75.5061
815.2000	75.711
815.1000	75.5917
815.0000	75.4352
814.9000	75.474
814.8000	75.2892
814.7000	75.317
814.6000	74.9819
814.5000	74.7706
814.4000	74.9105
814.3000	75.0159
814.2000	74.8103
814.1000	74.5039
814.0000	74.6174
813.9000	74.8909
813.8000	74.9213
813.7000	74.6371
813.6000	74.6463
813.5000	74.7456
813.4000	74.6431
813.3000	74.3319
813.2000	74.4716
813.1000	74.6882
813.0000	74.7175
812.9000	74.4721
812.8000	74.2297
812.7000	74.2658
812.6000	74.4269
812.5000	74.2859
812.4000	74.0836
812.3000	74.1545
812.2000	74.3031
812.1000	74.2196
812.0000	73.8397
811.9000	73.8419
811.8000	74.1997
811.7000	74.2691
811.6000	74.0308
811.5000	73.9601
811.4000	74.1256
811.3000	74.2148
811.2000	74.2231
811.1000	74.1936
811.0000	74.3794
810.9000	74.683
810.8000	74.6844
810.7000	74.3828
810.6000	74.3779
810.5000	74.6692
810.4000	74.763
810.3000	74.658
810.2000	74.4388
810.1000	74.6403
810.0000	74.6495
809.9000	74.4816
809.8000	74.3929
809.7000	74.6302
809.6000	74.6753
809.5000	74.5606
809.4000	74.2224
809.3000	74.216
809.2000	74.3444
809.1000	74.3825
809.0000	74.2066
808.9000	74.1735
808.8000	74.3403
808.7000	74.3734
808.6000	74.2346
808.5000	74.197
808.4000	74.3677
808.3000	74.3918
808.2000	74.3323
808.1000	74.2515
808.0000	74.4225
807.9000	74.4831
807.8000	74.4512
807.7000	74.3527
807.6000	74.6289
807.5000	74.7349
807.4000	74.6788
807.3000	74.5725
807.2000	74.6763
807.1000	74.7829
807.0000	74.8561
806.9000	74.7029
806.8000	74.7532
806.7000	74.9565
806.6000	74.993
806.5000	74.9018
806.4000	74.9022
806.3000	75.1006
806.2000	75.1704
806.1000	75.0258
806.0000	74.7649
805.9000	75.0309
805.8000	75.2757
805.7000	75.2423
805.6000	75.1874
805.5000	75.3584
805.4000	75.4635
805.3000	75.5154
805.2000	75.3972
805.1000	75.3496
805.0000	75.566
804.9000	75.6072
804.8000	75.5333
804.7000	75.5663
804.6000	75.7919
804.5000	75.956
804.4000	75.882
804.3000	75.7571
804.2000	75.7747
804.1000	75.8127
804.0000	75.7639
803.9000	75.7251
803.8000	75.9159
803.7000	76.0488
803.6000	76.1599
803.5000	76.1657
803.4000	76.168
803.3000	76.2613
803.2000	76.1335
803.1000	75.9808
803.0000	76.0217
802.9000	75.9969
802.8000	75.9973
802.7000	75.8546
802.6000	75.9573
802.5000	76.1455
802.4000	76.1515
802.3000	76.0671
802.2000	75.972
802.1000	76.0966
802.0000	76.0561
801.9000	76.03
801.8000	76.0368
801.7000	76.1316
801.6000	76.1631
801.5000	76.108
801.4000	76.0144
801.3000	76.1574
801.2000	76.1908
801.1000	76.3161
801.0000	76.4024
800.9000	76.3818
800.8000	76.5082
800.7000	76.4537
800.6000	76.5119
800.5000	76.4415
800.4000	76.4504
800.3000	76.5065
800.2000	76.496
800.1000	76.6256
800.0000	76.791
799.9000	76.9081
799.8000	77.0547
799.7000	77.0382
799.6000	77.0725
799.5000	77.0694
799.4000	76.9903
799.3000	77.1284
799.2000	77.1137
799.1000	77.1898
799.0000	77.0973
798.9000	77.2122
798.8000	77.3602
798.7000	77.4382
798.6000	77.441
798.5000	77.352
798.4000	77.3482
798.3000	77.3321
798.2000	77.3957
798.1000	77.4863
798.0000	77.4856
797.9000	77.4427
797.8000	77.4334
797.7000	77.3979
797.6000	77.3568
797.5000	77.3302
797.4000	77.3244
797.3000	77.2756
797.2000	77.1605
797.1000	77.0227
797.0000	77.0054
796.9000	77.0093
796.8000	76.8829
796.7000	76.9064
796.6000	76.7861
796.5000	76.8485
796.4000	76.9834
796.3000	77.077
796.2000	77.1026
796.1000	77.0284
796.0000	77.0243
795.9000	77.0622
795.8000	77.173
795.7000	77.1227
795.6000	77.2174
795.5000	77.3557
795.4000	77.3653
795.3000	77.36
795.2000	77.4756
795.1000	77.5337
795.0000	77.507
794.9000	77.3599
794.8000	77.1895
794.7000	77.1379
794.6000	76.9786
794.5000	77.0142
794.4000	76.9509
794.3000	76.922
794.2000	76.8307
794.1000	76.8978
794.0000	76.8497
793.9000	76.6642
793.8000	76.7467
793.7000	76.8211
793.6000	76.7716
793.5000	76.6308
793.4000	76.5772
793.3000	76.5804
793.2000	76.6275
793.1000	76.4622
793.0000	76.4917
792.9000	76.4089
792.8000	76.371
792.7000	76.2429
792.6000	76.1768
792.5000	76.0886
792.4000	75.9527
792.3000	75.9339
792.2000	75.7941
792.1000	75.7067
792.0000	75.6126
791.9000	75.5279
791.8000	75.5439
791.7000	75.5733
791.6000	75.571
791.5000	75.5464
791.4000	75.5694
791.3000	75.6816
791.2000	75.6441
791.1000	75.5248
791.0000	75.5414
790.9000	75.4898
790.8000	75.5384
790.7000	75.5016
790.6000	75.3744
790.5000	75.3862
790.4000	75.3838
790.3000	75.4293
790.2000	75.3709
790.1000	75.2932
790.0000	75.1647
789.9000	75.18
789.8000	75.0731
789.7000	75.0004
789.6000	74.9957
789.5000	74.9907
789.4000	74.9799
789.3000	75.1298
789.2000	75.1686
789.1000	75.0548
789.0000	75.1364
788.9000	75.104
788.8000	75.1552
788.7000	74.9794
788.6000	74.9683
788.5000	75.0964
788.4000	75.099
788.3000	75.0357
788.2000	75.0375
788.1000	74.9086
788.0000	74.8716
787.9000	74.901
787.8000	74.7322
787.7000	74.6299
787.6000	74.5613
787.5000	74.5214
787.4000	74.5245
787.3000	74.4481
787.2000	74.3572
787.1000	74.4119
787.0000	74.4292
786.9000	74.4336
786.8000	74.3849
786.7000	74.3769
786.6000	74.3582
786.5000	74.4722
786.4000	74.4897
786.3000	74.5013
786.2000	74.6095
786.1000	74.5897
786.0000	74.5542
785.9000	74.5933
785.8000	74.5494
785.7000	74.6229
785.6000	74.6748
785.5000	74.6776
785.4000	74.729
785.3000	74.6532
785.2000	74.6901
785.1000	74.6817
785.0000	74.7067
784.9000	74.7538
784.8000	74.787
784.7000	74.6634
784.6000	74.6329
784.5000	74.5698
784.4000	74.5663
784.3000	74.5527
784.2000	74.5768
784.1000	74.5142
784.0000	74.5244
783.9000	74.5469
783.8000	74.4678
783.7000	74.4712
783.6000	74.4836
783.5000	74.5256
783.4000	74.5049
783.3000	74.5101
783.2000	74.5225
783.1000	74.671
783.0000	74.735
782.9000	74.8304
782.8000	74.8942
782.7000	74.9775
782.6000	75.0229
782.5000	75.0355
782.4000	75.0336
782.3000	75.064
782.2000	75.1656
782.1000	75.1598
782.0000	75.2907
781.9000	75.2916
781.8000	75.3675
781.7000	75.3174
781.6000	75.3216
781.5000	75.2672
781.4000	75.2753
781.3000	75.3486
781.2000	75.4285
781.1000	75.4545
781.0000	75.4995
780.9000	75.6026
780.8000	75.7178
780.7000	75.7831
780.6000	75.8417
780.5000	75.8321
780.4000	75.7636
780.3000	75.7305
780.2000	75.8214
780.1000	75.8863
780.0000	75.8915
779.9000	75.9966
779.8000	76.1442
779.7000	76.003
779.6000	75.9641
779.5000	76.087
779.4000	76.1056
779.3000	76.0862
779.2000	76.0013
779.1000	76.0473
779.0000	76.0596
778.9000	76.058
778.8000	76.0317
778.7000	76.2759
778.6000	76.2834
778.5000	76.2534
778.4000	76.3212
778.3000	76.4798
778.2000	76.5481
778.1000	76.6643
778.0000	76.6483
777.9000	76.7178
777.8000	76.8124
777.7000	76.7556
777.6000	76.7924
777.5000	76.9596
777.4000	77.0258
777.3000	76.9902
777.2000	76.975
777.1000	77.0329
777.0000	77.1317
776.9000	77.0908
776.8000	77.1177
776.7000	77.1981
776.6000	77.066
776.5000	76.9678
776.4000	76.9973
776.3000	77.0613
776.2000	76.9416
776.1000	76.8848
776.0000	76.9772
775.9000	76.9376
775.8000	76.7698
775.7000	76.6948
775.6000	76.8871
775.5000	76.9705
775.4000	76.8551
775.3000	76.8568
775.2000	76.9637
775.1000	77.0666
775.0000	77.1089
774.9000	77.0339
774.8000	77.071
774.7000	77.151
774.6000	77.2056
774.5000	77.2571
774.4000	77.3194
774.3000	77.3647
774.2000	77.4822
774.1000	77.564
774.0000	77.5876
773.9000	77.4643
773.8000	77.4524
773.7000	77.394
773.6000	77.4831
773.5000	77.3055
773.4000	77.25
773.3000	77.3786
773.2000	77.4182
773.1000	77.2924
773.0000	77.2943
772.9000	77.2572
772.8000	77.2135
772.7000	77.1186
772.6000	77.0159
772.5000	77.1364
772.4000	77.1251
772.3000	77.1288
772.2000	77.1181
772.1000	77.249
772.0000	77.1394
771.9000	77.1438
771.8000	77.0601
771.7000	77.1919
771.6000	77.2308
771.5000	77.1805
771.4000	77.1129
771.3000	77.1726
771.2000	77.2363
771.1000	77.1172
771.0000	77.0555
770.9000	77.0367
770.8000	77.007
770.7000	76.89
770.6000	76.9018
770.5000	76.8511
770.4000	76.7658
770.3000	76.6357
770.2000	76.6852
770.1000	76.5771
770.0000	76.4565
769.9000	76.4416
769.8000	76.4885
769.7000	76.4204
769.6000	76.2053
769.5000	76.1563
769.4000	76.3034
769.3000	76.139
769.2000	75.9791
769.1000	76.0617
769.0000	76.1972
768.9000	76.1041
768.8000	76.0399
768.7000	76.2179
768.6000	76.1376
768.5000	75.9613
768.4000	75.9122
768.3000	75.9602
768.2000	75.9287
768.1000	75.8237
768.0000	75.724
767.9000	75.8994
767.8000	75.8595
767.7000	75.7513
767.6000	75.8409
767.5000	75.9682
767.4000	75.7944
767.3000	75.7196
767.2000	75.7509
767.1000	75.7316
767.0000	75.7153
766.9000	75.702
766.8000	75.7179
766.7000	75.7845
766.6000	75.6955
766.5000	75.5555
766.4000	75.7414
766.3000	75.7371
766.2000	75.595
766.1000	75.5966
766.0000	75.6101
765.9000	75.4926
765.8000	75.375
765.7000	75.4027
765.6000	75.5341
765.5000	75.5056
765.4000	75.383
765.3000	75.4807
765.2000	75.5735
765.1000	75.4106
765.0000	75.2971
764.9000	75.5333
764.8000	75.6213
764.7000	75.4687
764.6000	75.3126
764.5000	75.4762
764.4000	75.505
764.3000	75.3257
764.2000	75.2971
764.1000	75.343
764.0000	75.2244
763.9000	75.0277
763.8000	75.1191
763.7000	75.1987
763.6000	75.0925
763.5000	74.9341
763.4000	75.025
763.3000	75.0469
763.2000	74.8748
763.1000	74.7608
763.0000	75.0044
762.9000	75.0102
762.8000	74.7538
762.7000	74.7255
762.6000	74.8867
762.5000	74.9408
762.4000	74.7787
762.3000	74.843
762.2000	74.9793
762.1000	74.7973
762.0000	74.7132
761.9000	74.9256
761.8000	75.1093
761.7000	74.8555
761.6000	74.7122
761.5000	74.9079
761.4000	74.9526
761.3000	74.6891
761.2000	74.7339
761.1000	74.969
761.0000	74.9374
760.9000	74.692
760.8000	74.7655
760.7000	74.8667
760.6000	74.8676
760.5000	74.7846
760.4000	74.8401
760.3000	74.903
760.2000	74.7113
760.1000	74.7104
760.0000	75.0123
759.9000	75.1377
759.8000	74.9194
759.7000	75.0677
759.6000	75.3157
759.5000	75.1649
759.4000	75.0695
759.3000	75.2075
759.2000	75.3907
759.1000	75.4481
759.0000	75.2569
758.9000	75.4811
758.8000	75.5747
758.7000	75.4298
758.6000	75.4394
758.5000	75.7313
758.4000	75.6703
758.3000	75.3891
758.2000	75.5057
758.1000	75.6861
758.0000	75.5875
757.9000	75.6048
757.8000	75.724
757.7000	75.9462
757.6000	75.8247
757.5000	75.7134
757.4000	75.9988
757.3000	75.9728
757.2000	75.8691
757.1000	75.9977
757.0000	76.2152
756.9000	76.1708
756.8000	76.0271
756.7000	76.2432
756.6000	76.3905
756.5000	76.2765
756.4000	76.2462
756.3000	76.4089
756.2000	76.4556
756.1000	76.2633
756.0000	76.3299
755.9000	76.5342
755.8000	76.4488
755.7000	76.3843
755.6000	76.5055
755.5000	76.5672
755.4000	76.4057
755.3000	76.306
755.2000	76.5681
755.1000	76.6617
755.0000	76.5475
754.9000	76.6594
754.8000	76.822
754.7000	76.8151
754.6000	76.6849
754.5000	76.8384
754.4000	76.9391
754.3000	76.7983
754.2000	76.7569
754.1000	76.943
754.0000	76.9544
753.9000	76.8399
753.8000	76.9215
753.7000	77.0938
753.6000	76.9846
753.5000	76.9816
753.4000	77.1211
753.3000	77.0909
753.2000	76.9867
753.1000	76.9666
753.0000	77.2369
752.9000	77.1709
752.8000	77.0781
752.7000	77.1329
752.6000	77.2154
752.5000	77.1376
752.4000	77.1349
752.3000	77.2912
752.2000	77.3558
752.1000	77.298
752.0000	77.3731
751.9000	77.3717
751.8000	77.3207
751.7000	77.278
751.6000	77.4187
751.5000	77.4356
751.4000	77.2651
751.3000	77.3657
751.2000	77.4427
751.1000	77.499
751.0000	77.4661
750.9000	77.5262
750.8000	77.5515
750.7000	77.4665
750.6000	77.421
750.5000	77.535
750.4000	77.5004
750.3000	77.3632
750.2000	77.4433
750.1000	77.5278
750.0000	77.3705
749.9000	77.3081
749.8000	77.3467
749.7000	77.2615
749.6000	77.0202
749.5000	76.9415
749.4000	77.0429
749.3000	76.9158
749.2000	76.7852
749.1000	76.8059
749.0000	76.8022
748.9000	76.6099
748.8000	76.5182
748.7000	76.7413
748.6000	76.6452
748.5000	76.5664
748.4000	76.706
748.3000	76.7794
748.2000	76.6634
748.1000	76.6604
748.0000	76.8908
747.9000	76.8496
747.8000	76.7069
747.7000	76.7906
747.6000	76.9088
747.5000	76.8648
747.4000	76.7785
747.3000	76.907
747.2000	76.9246
747.1000	76.6271
747.0000	76.608
746.9000	76.6688
746.8000	76.5372
746.7000	76.3288
746.6000	76.4619
746.5000	76.4435
746.4000	76.3088
746.3000	76.2944
746.2000	76.3635
746.1000	76.2303
746.0000	76.0891
745.9000	76.1173
745.8000	76.1031
745.7000	75.8214
745.6000	75.7668
745.5000	75.985
745.4000	75.8976
745.3000	75.741
745.2000	75.8117
745.1000	75.9514
745.0000	75.7298
744.9000	75.6603
744.8000	75.8354
744.7000	75.7874
744.6000	75.6414
744.5000	75.7071
744.4000	75.8353
744.3000	75.6103
744.2000	75.6033
744.1000	75.9022
744.0000	75.9059
743.9000	75.5876
743.8000	75.6214
743.7000	75.6887
743.6000	75.5012
743.5000	75.4126
743.4000	75.6341
743.3000	75.5648
743.2000	75.2218
743.1000	75.2684
743.0000	75.3624
742.9000	75.2345
742.8000	75.114
742.7000	75.3445
742.6000	75.2625
742.5000	74.9394
742.4000	74.9901
742.3000	75.2491
742.2000	75.1445
742.1000	75.0084
742.0000	75.2657
741.9000	75.2521
741.8000	74.949
741.7000	75.0291
741.6000	75.2714
741.5000	75.103
741.4000	74.9554
741.3000	75.091
741.2000	75.1017
741.1000	74.8378
741.0000	74.9747
740.9000	75.2083
740.8000	75.0621
740.7000	74.8235
740.6000	75.0412
740.5000	75.1702
740.4000	74.7982
740.3000	74.8091
740.2000	75.0804
740.1000	75.0218
740.0000	74.7716
739.9000	74.9946
739.8000	75.0713
739.7000	74.876
739.6000	74.8415
739.5000	75.1419
739.4000	75.1309
739.3000	74.9181
739.2000	75.0887
739.1000	75.2535
739.0000	75.0499
738.9000	74.9543
738.8000	75.2902
738.7000	75.3212
738.6000	75.113
738.5000	75.328
738.4000	75.5408
738.3000	75.429
738.2000	75.3711
738.1000	75.5043
738.0000	75.4975
737.9000	75.2613
737.8000	75.3664
737.7000	75.5907
737.6000	75.496
737.5000	75.3518
737.4000	75.6427
737.3000	75.6857
737.2000	75.4824
737.1000	75.61
737.0000	75.879
736.9000	75.6453
736.8000	75.6027
736.7000	75.7744
736.6000	75.8076
736.5000	75.6562
736.4000	75.722
736.3000	75.9318
736.2000	75.8081
736.1000	75.7554
736.0000	75.9789
735.9000	76.0954
735.8000	75.8753
735.7000	76.0117
735.6000	76.2454
735.5000	76.0606
735.4000	75.9112
735.3000	76.1686
735.2000	76.1611
735.1000	76.0462
735.0000	76.2196
734.9000	76.4202
734.8000	76.3039
734.7000	76.1858
734.6000	76.4201
734.5000	76.3968
734.4000	76.1858
734.3000	76.3269
734.2000	76.4769
734.1000	76.4222
734.0000	76.3361
733.9000	76.5574
733.8000	76.5983
733.7000	76.4945
733.6000	76.6335
733.5000	76.7232
733.4000	76.6032
733.3000	76.6354
733.2000	76.8016
733.1000	76.8985
733.0000	76.8194
732.9000	76.9656
732.8000	77.0831
732.7000	76.9688
732.6000	77.0354
732.5000	77.1294
732.4000	77.1475
732.3000	77.0787
732.2000	77.2563
732.1000	77.3248
732.0000	77.2451
731.9000	77.4323
731.8000	77.5511
731.7000	77.4877
731.6000	77.4761
731.5000	77.5715
731.4000	77.5524
731.3000	77.3939
731.2000	77.4167
731.1000	77.4509
731.0000	77.3132
730.9000	77.2538
730.8000	77.2794
730.7000	77.25
730.6000	77.1331
730.5000	77.1993
730.4000	77.2271
730.3000	77.043
730.2000	77.0281
730.1000	77.1248
730.0000	77.1259
729.9000	77.077
729.8000	77.1962
729.7000	77.2193
729.6000	77.2144
729.5000	77.3136
729.4000	77.3946
729.3000	77.3676
729.2000	77.4634
729.1000	77.531
729.0000	77.5158
728.9000	77.4397
728.8000	77.5709
728.7000	77.5823
728.6000	77.501
728.5000	77.4707
728.4000	77.5109
728.3000	77.4121
728.2000	77.2652
728.1000	77.3383
728.0000	77.3231
727.9000	77.1826
727.8000	77.2388
727.7000	77.2961
727.6000	77.0883
727.5000	77.0785
727.4000	77.2267
727.3000	77.1876
727.2000	77.0208
727.1000	77.0884
727.0000	77.089
726.9000	77.0001
726.8000	76.9859
726.7000	77.1155
726.6000	77.0462
726.5000	76.9333
726.4000	76.9753
726.3000	76.9848
726.2000	76.8149
726.1000	76.8712
726.0000	76.9611
725.9000	76.8458
725.8000	76.716
725.7000	76.7715
725.6000	76.6293
725.5000	76.4249
725.4000	76.5461
725.3000	76.4964
725.2000	76.3555
725.1000	76.306
725.0000	76.436
724.9000	76.3177
724.8000	76.2131
724.7000	76.2938
724.6000	76.2274
724.5000	76.0472
724.4000	76.1103
724.3000	76.0862
724.2000	75.9231
724.1000	75.8909
724.0000	76.0075
723.9000	75.9928
723.8000	75.9157
723.7000	75.9472
723.6000	75.8621
723.5000	75.7286
723.4000	75.7374
723.3000	75.849
723.2000	75.7139
723.1000	75.7283
723.0000	75.8175
722.9000	75.704
722.8000	75.5544
722.7000	75.6316
722.6000	75.6124
722.5000	75.4051
722.4000	75.5097
722.3000	75.5392
722.2000	75.3107
722.1000	75.3345
722.0000	75.4712
721.9000	75.3628
721.8000	75.193
721.7000	75.2986
721.6000	75.293
721.5000	75.0694
721.4000	75.1551
721.3000	75.2371
721.2000	75.0923
721.1000	75.1386
721.0000	75.3026
720.9000	75.2849
720.8000	75.0781
720.7000	75.2307
720.6000	75.2958
720.5000	75.1086
720.4000	75.1226
720.3000	75.2173
720.2000	75.1074
720.1000	75.0882
720.0000	75.2532
719.9000	75.2151
719.8000	75.0454
719.7000	75.1889
719.6000	75.2866
719.5000	75.0647
719.4000	75.1372
719.3000	75.2923
719.2000	75.2382
719.1000	75.1076
719.0000	75.301
718.9000	75.3356
718.8000	75.2065
718.7000	75.3481
718.6000	75.4848
718.5000	75.2709
718.4000	75.243
718.3000	75.4098
718.2000	75.369
718.1000	75.1915
718.0000	75.3517
717.9000	75.3788
717.8000	75.1662
717.7000	75.2507
717.6000	75.4087
717.5000	75.287
717.4000	75.2468
717.3000	75.4283
717.2000	75.4229
717.1000	75.3581
717.0000	75.47
716.9000	75.6054
716.8000	75.5592
716.7000	75.6031
716.6000	75.735
716.5000	75.7822
716.4000	75.7539
716.3000	75.9439
716.2000	75.9655
716.1000	75.8968
716.0000	75.9811
715.9000	76.1188
715.8000	76.0783
715.7000	76.1049
715.6000	76.2529
715.5000	76.1746
715.4000	76.1715
715.3000	76.2693
715.2000	76.2467
715.1000	76.1867
715.0000	76.309
714.9000	76.3571
714.8000	76.3528
714.7000	76.4029
714.6000	76.524
714.5000	76.565
714.4000	76.6053
714.3000	76.6848
714.2000	76.663
714.1000	76.6252
714.0000	76.6387
713.9000	76.6732
713.8000	76.7043
713.7000	76.6775
713.6000	76.7347
713.5000	76.7978
713.4000	76.8196
713.3000	76.8107
713.2000	76.787
713.1000	76.8325
713.0000	76.8466
712.9000	76.8664
712.8000	76.8755
712.7000	76.9073
712.6000	76.9778
712.5000	77.025
712.4000	77.1
712.3000	77.1506
712.2000	77.1546
712.1000	77.2088
712.0000	77.2644
711.9000	77.2554
711.8000	77.2796
711.7000	77.38
711.6000	77.4078
711.5000	77.3817
711.4000	77.4077
711.3000	77.3668
711.2000	77.3233
711.1000	77.288
711.0000	77.3077
710.9000	77.3631
710.8000	77.3125
710.7000	77.3414
710.6000	77.3548
710.5000	77.4081
710.4000	77.3232
710.3000	77.3385
710.2000	77.2709
710.1000	77.1924
710.0000	77.1737
709.9000	77.2181
709.8000	77.1963
709.7000	77.1898
709.6000	77.2114
709.5000	77.2293
709.4000	77.184
709.3000	77.1187
709.2000	77.1564
709.1000	77.1478
709.0000	77.086
708.9000	77.0742
708.8000	77.119
708.7000	77.1535
708.6000	77.1544
708.5000	77.1548
708.4000	77.1217
708.3000	77.057
708.2000	77.0443
708.1000	77.0038
708.0000	77.021
707.9000	77.0111
707.8000	76.9626
707.7000	76.9821
707.6000	76.9435
707.5000	76.9312
707.4000	76.9371
707.3000	76.8963
707.2000	76.8374
707.1000	76.77
707.0000	76.7901
706.9000	76.7554
706.8000	76.7061
706.7000	76.7371
706.6000	76.7102
706.5000	76.6945
706.4000	76.6334
706.3000	76.6353
706.2000	76.6191
706.1000	76.5039
706.0000	76.523
705.9000	76.4454
705.8000	76.3482
705.7000	76.3387
705.6000	76.2742
705.5000	76.1859
705.4000	76.1753
705.3000	76.1674
705.2000	76.1833
705.1000	76.0977
705.0000	76.0721
704.9000	76.0136
704.8000	75.9827
704.7000	75.9221
704.6000	75.8488
704.5000	75.8963
704.4000	75.8568
704.3000	75.7924
704.2000	75.798
704.1000	75.7993
704.0000	75.7971
703.9000	75.8213
703.8000	75.7299
703.7000	75.6313
703.6000	75.585
703.5000	75.6396
703.4000	75.5788
703.3000	75.5691
703.2000	75.6362
703.1000	75.5494
703.0000	75.5268
702.9000	75.4971
702.8000	75.3859
702.7000	75.3925
702.6000	75.4846
702.5000	75.405
702.4000	75.3592
702.3000	75.3907
702.2000	75.3287
702.1000	75.2665
702.0000	75.2735
701.9000	75.1751
701.8000	75.0975
701.7000	75.1835
701.6000	75.1042
701.5000	75.0083
701.4000	75.0741
701.3000	75.1184
701.2000	75.057
701.1000	75.0573
701.0000	75.0448
700.9000	74.9308
700.8000	74.9597
700.7000	74.9978
700.6000	74.9226
700.5000	74.9346
700.4000	75.0677
700.3000	75.0156
700.2000	75.0237
700.1000	75.0841
700.0000	75.0478
699.9000	75.0446
699.8000	75.1134
699.7000	75.0572
699.6000	75.0043
699.5000	75.1213
699.4000	75.0979
699.3000	75.0411
699.2000	75.1499
699.1000	75.1551
699.0000	75.1622
698.9000	75.3114
698.8000	75.3064
698.7000	75.2932
698.6000	75.3451
698.5000	75.391
698.4000	75.3323
698.3000	75.4056
698.2000	75.4486
698.1000	75.4347
698.0000	75.51
697.9000	75.5692
697.8000	75.5976
697.7000	75.6042
697.6000	75.7189
697.5000	75.6939
697.4000	75.7353
697.3000	75.8013
697.2000	75.7987
697.1000	75.8075
697.0000	75.9172
696.9000	75.9328
696.8000	75.9278
696.7000	75.9989
696.6000	76.0414
696.5000	76.018
696.4000	76.128
696.3000	76.1515
696.2000	76.0387
696.1000	76.22
696.0000	76.2274
695.9000	76.2178
695.8000	76.241
695.7000	76.3059
695.6000	76.2899
695.5000	76.3546
695.4000	76.4311
695.3000	76.3593
695.2000	76.3913
695.1000	76.5222
695.0000	76.4842
694.9000	76.5131
694.8000	76.5714
694.7000	76.5956
694.6000	76.6467
694.5000	76.7398
694.4000	76.7186
694.3000	76.6859
694.2000	76.8184
694.1000	76.7899
694.0000	76.7528
693.9000	76.8315
693.8000	76.8708
693.7000	76.8761
693.6000	76.9996
693.5000	76.9515
693.4000	76.9329
693.3000	77.0312
693.2000	77.0795
693.1000	77.0336
693.0000	77.1063
692.9000	77.1292
692.8000	77.0717
692.7000	77.1458
692.6000	77.1628
692.5000	77.1525
692.4000	77.1985
692.3000	77.1823
692.2000	77.1295
692.1000	77.2049
692.0000	77.2421
691.9000	77.1757
691.8000	77.2421
691.7000	77.26
691.6000	77.176
691.5000	77.2197
691.4000	77.2695
691.3000	77.1195
691.2000	77.1745
691.1000	77.2635
691.0000	77.1507
690.9000	77.1567
690.8000	77.2168
690.7000	77.1338
690.6000	77.1403
690.5000	77.1594
690.4000	77.0253
690.3000	77.1172
690.2000	77.1377
690.1000	77.0443
690.0000	77.0868
689.9000	77.1009
689.8000	76.9819
689.7000	77.0521
689.6000	77.1031
689.5000	76.9387
689.4000	76.9998
689.3000	77.0257
689.2000	76.911
689.1000	76.967
689.0000	77.0049
688.9000	76.8214
688.8000	76.9034
688.7000	76.9522
688.6000	76.8163
688.5000	76.8606
688.4000	76.8782
688.3000	76.7405
688.2000	76.7883
688.1000	76.7988
688.0000	76.6053
687.9000	76.6587
687.8000	76.675
687.7000	76.5388
687.6000	76.4935
687.5000	76.5155
687.4000	76.3247
687.3000	76.3744
687.2000	76.4315
687.1000	76.231
687.0000	76.1999
686.9000	76.2581
686.8000	76.0927
686.7000	76.0664
686.6000	76.0928
686.5000	75.9841
686.4000	76.0363
686.3000	76.0912
686.2000	75.9578
686.1000	75.8925
686.0000	76.0051
685.9000	75.8903
685.8000	75.8777
685.7000	75.9724
685.6000	75.7565
685.5000	75.6845
685.4000	75.8224
685.3000	75.6665
685.2000	75.6211
685.1000	75.7187
685.0000	75.6059
684.9000	75.5083
684.8000	75.5806
684.7000	75.4862
684.6000	75.3779
684.5000	75.5479
684.4000	75.4562
684.3000	75.3736
684.2000	75.5074
684.1000	75.3828
684.0000	75.3023
683.9000	75.5053
683.8000	75.4151
683.7000	75.316
683.6000	75.4096
683.5000	75.2951
683.4000	75.2067
683.3000	75.3313
683.2000	75.2708
683.1000	75.1255
683.0000	75.3696
682.9000	75.2916
682.8000	75.1064
682.7000	75.2771
682.6000	75.1776
682.5000	75.0813
682.4000	75.3085
682.3000	75.2045
682.2000	75.0788
682.1000	75.2457
682.0000	75.239
681.9000	75.1654
681.8000	75.3596
681.7000	75.3646
681.6000	75.2185
681.5000	75.4053
681.4000	75.3222
681.3000	75.2075
681.2000	75.4169
681.1000	75.4028
681.0000	75.3382
680.9000	75.5122
680.8000	75.4681
680.7000	75.393
680.6000	75.6093
680.5000	75.5898
680.4000	75.5289
680.3000	75.6997
680.2000	75.6026
680.1000	75.5004
680.0000	75.6997
679.9000	75.64
679.8000	75.5933
679.7000	75.8021
679.6000	75.8038
679.5000	75.6967
679.4000	75.9002
679.3000	75.8889
679.2000	75.8182
679.1000	76.0195
679.0000	75.9326
678.9000	75.9203
678.8000	76.1238
678.7000	76.1099
678.6000	76.0868
678.5000	76.2858
678.4000	76.2516
678.3000	76.3108
678.2000	76.4631
678.1000	76.3895
678.0000	76.4043
677.9000	76.5653
677.8000	76.4723
677.7000	76.4379
677.6000	76.6012
677.5000	76.4817
677.4000	76.5613
677.3000	76.6859
677.2000	76.5731
677.1000	76.611
677.0000	76.7378
676.9000	76.6375
676.8000	76.7127
676.7000	76.7976
676.6000	76.6942
676.5000	76.7641
676.4000	76.7954
676.3000	76.7324
676.2000	76.8491
676.1000	76.9822
676.0000	76.8947
675.9000	77.0373
675.8000	77.0379
675.7000	76.9389
675.6000	77.0223
675.5000	77.0189
675.4000	76.9988
675.3000	77.1269
675.2000	77.1102
675.1000	77.0396
675.0000	77.1518
674.9000	77.1021
674.8000	77.1524
674.7000	77.2757
674.6000	77.2226
674.5000	77.1583
674.4000	77.2099
674.3000	77.0706
674.2000	77.0707
674.1000	77.2141
674.0000	77.1711
673.9000	77.1846
673.8000	77.2418
673.7000	77.1485
673.6000	77.1439
673.5000	77.1741
673.4000	77.064
673.3000	77.1574
673.2000	77.1247
673.1000	77.0383
673.0000	77.102
672.9000	77.1072
672.8000	77.1088
672.7000	77.2494
672.6000	77.2696
672.5000	77.1785
672.4000	77.238
672.3000	77.1747
672.2000	77.0972
672.1000	77.1967
672.0000	77.1035
671.9000	77.1142
671.8000	77.2252
671.7000	77.107
671.6000	77.1355
671.5000	77.1397
671.4000	76.9689
671.3000	76.9965
671.2000	76.9546
671.1000	76.8155
671.0000	76.8255
670.9000	76.795
670.8000	76.6473
670.7000	76.7201
670.6000	76.6778
670.5000	76.5276
670.4000	76.6725
670.3000	76.5901
670.2000	76.4854
670.1000	76.5733
670.0000	76.4499
669.9000	76.3971
669.8000	76.5174
669.7000	76.4162
669.6000	76.3945
669.5000	76.4611
669.4000	76.2948
669.3000	76.2282
669.2000	76.3523
669.1000	76.2218
669.0000	76.2757
668.9000	76.3544
668.8000	76.109
668.7000	76.1019
668.6000	76.0713
668.5000	75.8594
668.4000	75.9467
668.3000	75.9431
668.2000	75.7296
668.1000	75.7797
668.0000	75.7448
667.9000	75.6223
667.8000	75.7738
667.7000	75.7218
667.6000	75.5696
667.5000	75.6629
667.4000	75.5243
667.3000	75.4395
667.2000	75.6369
667.1000	75.5641
667.0000	75.5621
666.9000	75.7292
666.8000	75.5451
666.7000	75.5331
666.6000	75.6934
666.5000	75.5077
666.4000	75.5282
666.3000	75.5885
666.2000	75.3838
666.1000	75.4907
666.0000	75.4892
665.9000	75.3468
665.8000	75.473
665.7000	75.3763
665.6000	75.2039
665.5000	75.34
665.4000	75.2621
665.3000	75.213
665.2000	75.3726
665.1000	75.2401
665.0000	75.1864
664.9000	75.3326
664.8000	75.1918
664.7000	75.2067
664.6000	75.3064
664.5000	75.1695
664.4000	75.2803
664.3000	75.3646
664.2000	75.2204
664.1000	75.3589
664.0000	75.3732
663.9000	75.2499
663.8000	75.436
663.7000	75.3452
663.6000	75.2677
663.5000	75.45
663.4000	75.3837
663.3000	75.3953
663.2000	75.5973
663.1000	75.5486
663.0000	75.6149
662.9000	75.725
662.8000	75.6171
662.7000	75.6892
662.6000	75.786
662.5000	75.7307
662.4000	75.8789
662.3000	75.8891
662.2000	75.8029
662.1000	75.976
662.0000	75.9872
661.9000	75.9569
661.8000	76.088
661.7000	76.0523
661.6000	76.0802
661.5000	76.0943
661.4000	75.9995
661.3000	76.0275
661.2000	76.0928
661.1000	76.0161
661.0000	76.1683
660.9000	76.2042
660.8000	76.2173
660.7000	76.323
660.6000	76.3374
660.5000	76.3037
660.4000	76.3904
660.3000	76.3574
660.2000	76.4028
660.1000	76.4676
660.0000	76.3927
659.9000	76.5478
659.8000	76.6422
659.7000	76.6715
659.6000	76.7647
659.5000	76.7922
659.4000	76.7274
659.3000	76.7777
659.2000	76.7639
659.1000	76.8265
659.0000	76.849
658.9000	76.8683
658.8000	76.943
658.7000	76.9724
658.6000	77.02
658.5000	77.0885
658.4000	77.1281
658.3000	77.1227
658.2000	77.1551
658.1000	77.1449
658.0000	77.161
657.9000	77.2086
657.8000	77.1968
657.7000	77.3207
657.6000	77.3256
657.5000	77.3105
657.4000	77.3753
657.3000	77.3792
657.2000	77.3447
657.1000	77.4186
657.0000	77.3387
656.9000	77.3564
656.8000	77.3762
656.7000	77.3263
656.6000	77.3778
656.5000	77.4003
656.4000	77.3618
656.3000	77.4087
656.2000	77.3698
656.1000	77.296
656.0000	77.3158
655.9000	77.2901
655.8000	77.2937
655.7000	77.2299
655.6000	77.1791
655.5000	77.2267
655.4000	77.2153
655.3000	77.1932
655.2000	77.2058
655.1000	77.1168
655.0000	77.1013
654.9000	76.9932
654.8000	76.9574
654.7000	76.9706
654.6000	76.9543
654.5000	76.9706
654.4000	76.907
654.3000	76.7902
654.2000	76.7811
654.1000	76.8015
654.0000	76.7706
653.9000	76.741
653.8000	76.6474
653.7000	76.5523
653.6000	76.5457
653.5000	76.543
653.4000	76.4797
653.3000	76.5332
653.2000	76.4339
653.1000	76.4276
653.0000	76.3856
652.9000	76.2809
652.8000	76.3575
652.7000	76.3082
652.6000	76.2969
652.5000	76.3067
652.4000	76.2085
652.3000	76.191
652.2000	76.2285
652.1000	76.1909
652.0000	76.1694
651.9000	76.0879
651.8000	76.0394
651.7000	76.0396
651.6000	75.9795
651.5000	75.9126
651.4000	75.8877
651.3000	75.8097
651.2000	75.7803
651.1000	75.774
651.0000	75.6805
650.9000	75.6655
650.8000	75.6376
650.7000	75.5379
650.6000	75.4989
650.5000	75.4018
650.4000	75.4155
650.3000	75.4243
650.2000	75.3477
650.1000	75.3452
650.0000	75.3584
649.9000	75.323
649.8000	75.3544
649.7000	75.306
649.6000	75.2983
649.5000	75.2869
649.4000	75.2343
649.3000	75.2827
649.2000	75.3268
649.1000	75.3195
649.0000	75.387
648.9000	75.3912
648.8000	75.3467
648.7000	75.421
648.6000	75.3999
648.5000	75.4344
648.4000	75.4235
648.3000	75.4016
648.2000	75.455
648.1000	75.4956
648.0000	75.4786
647.9000	75.5677
647.8000	75.5747
647.7000	75.5121
647.6000	75.5367
647.5000	75.541
647.4000	75.5362
647.3000	75.613
647.2000	75.649
647.1000	75.6634
647.0000	75.6733
646.9000	75.6627
646.8000	75.7277
646.7000	75.7249
646.6000	75.7379
646.5000	75.7316
646.4000	75.7725
646.3000	75.8008
646.2000	75.823
646.1000	75.8962
646.0000	75.9291
645.9000	75.957
645.8000	76.014
645.7000	76.0159
645.6000	76.0275
645.5000	76.0536
645.4000	76.1263
645.3000	76.1839
645.2000	76.2219
645.1000	76.2904
645.0000	76.348
644.9000	76.4363
644.8000	76.4175
644.7000	76.4864
644.6000	76.5526
644.5000	76.5803
644.4000	76.6114
644.3000	76.6543
644.2000	76.6887
644.1000	76.7391
644.0000	76.7439
643.9000	76.7825
643.8000	76.8374
643.7000	76.8671
643.6000	76.9516
643.5000	76.9982
643.4000	77.0177
643.3000	77.0812
643.2000	77.1115
643.1000	77.0876
643.0000	77.1023
642.9000	77.0829
642.8000	77.1002
642.7000	77.1344
642.6000	77.0852
642.5000	77.1881
642.4000	77.2364
642.3000	77.2463
642.2000	77.3719
642.1000	77.3009
642.0000	77.288
641.9000	77.3122
641.8000	77.2667
641.7000	77.2979
641.6000	77.2747
641.5000	77.3011
641.4000	77.3747
641.3000	77.327
641.2000	77.3829
641.1000	77.407
641.0000	77.3825
640.9000	77.4042
640.8000	77.3374
640.7000	77.3576
640.6000	77.2945
640.5000	77.2531
640.4000	77.2803
640.3000	77.2219
640.2000	77.2224
640.1000	77.2347
640.0000	77.19
639.9000	77.247
639.8000	77.1798
639.7000	77.1394
639.6000	77.1515
639.5000	77.0506
639.4000	77.087
639.3000	77.0544
639.2000	77.0135
639.1000	77.0301
639.0000	76.9641
638.9000	76.9952
638.8000	77.0237
638.7000	76.9635
638.6000	76.9629
638.5000	76.8985
638.4000	76.8382
638.3000	76.7885
638.2000	76.7394
638.1000	76.7301
638.0000	76.6972
637.9000	76.6391
637.8000	76.6449
637.7000	76.5586
637.6000	76.5063
637.5000	76.513
637.4000	76.4103
637.3000	76.4412
637.2000	76.3514
637.1000	76.2328
637.0000	76.179
636.9000	76.0571
636.8000	76.1056
636.7000	76.0513
636.6000	75.9691
636.5000	76.0096
636.4000	75.8633
636.3000	75.8815
636.2000	75.8391
636.1000	75.7391
636.0000	75.7923
635.9000	75.7152
635.8000	75.6981
635.7000	75.6403
635.6000	75.553
635.5000	75.6323
635.4000	75.6641
635.3000	75.6732
635.2000	75.6875
635.1000	75.5667
635.0000	75.5522
634.9000	75.5377
634.8000	75.5071
634.7000	75.5288
634.6000	75.4855
634.5000	75.4541
634.4000	75.4693
634.3000	75.3821
634.2000	75.4225
634.1000	75.4352
634.0000	75.386
633.9000	75.4601
633.8000	75.3637
633.7000	75.3595
633.6000	75.3261
633.5000	75.3079
633.4000	75.3882
633.3000	75.3712
633.2000	75.4012
633.1000	75.4952
633.0000	75.452
632.9000	75.5614
632.8000	75.4978
632.7000	75.4757
632.6000	75.565
632.5000	75.4555
632.4000	75.5206
632.3000	75.5122
632.2000	75.4554
632.1000	75.566
632.0000	75.5462
631.9000	75.6441
631.8000	75.7113
631.7000	75.6375
631.6000	75.7145
631.5000	75.6324
631.4000	75.6836
631.3000	75.7623
631.2000	75.7567
631.1000	75.8706
631.0000	75.8539
630.9000	75.8844
630.8000	76.0104
630.7000	75.9912
630.6000	76.0899
630.5000	76.103
630.4000	76.0967
630.3000	76.1723
630.2000	76.1219
630.1000	76.1896
630.0000	76.2286
629.9000	76.2315
629.8000	76.3385
629.7000	76.2696
629.6000	76.3345
629.5000	76.3937
629.4000	76.3628
629.3000	76.4936
629.2000	76.4448
629.1000	76.4526
629.0000	76.5782
628.9000	76.5122
628.8000	76.6201
628.7000	76.6383
628.6000	76.6792
628.5000	76.7964
628.4000	76.8074
628.3000	76.8938
628.2000	76.8873
628.1000	76.9767
628.0000	77.1044
627.9000	77.0542
627.8000	77.1526
627.7000	77.137
627.6000	77.1809
627.5000	77.29
627.4000	77.2215
627.3000	77.3231
627.2000	77.3212
627.1000	77.3331
627.0000	77.4598
626.9000	77.3967
626.8000	77.4683
626.7000	77.4696
626.6000	77.4574
626.5000	77.4695
626.4000	77.386
626.3000	77.4524
626.2000	77.4593
626.1000	77.4803
626.0000	77.498
625.9000	77.4548
625.8000	77.5242
625.7000	77.4931
625.6000	77.4619
625.5000	77.4585
625.4000	77.3274
625.3000	77.3759
625.2000	77.3032
625.1000	77.2726
625.0000	77.2892
624.9000	77.2161
624.8000	77.2898
624.7000	77.2321
624.6000	77.1871
624.5000	77.1935
624.4000	77.1079
624.3000	77.1322
624.2000	77.0401
624.1000	77.0595
624.0000	77.0724
623.9000	76.9475
623.8000	77.0278
623.7000	76.906
623.6000	76.9186
623.5000	76.8825
623.4000	76.8077
623.3000	76.8546
623.2000	76.7125
623.1000	76.6672
623.0000	76.6308
622.9000	76.5325
622.8000	76.5883
622.7000	76.4455
622.6000	76.4423
622.5000	76.3791
622.4000	76.319
622.3000	76.4074
622.2000	76.2062
622.1000	76.235
622.0000	76.1841
621.9000	76.1126
621.8000	76.1439
621.7000	75.9563
621.6000	75.9805
621.5000	75.9504
621.4000	75.8645
621.3000	75.9173
621.2000	75.7681
621.1000	75.8204
621.0000	75.7885
620.9000	75.7117
620.8000	75.7384
620.7000	75.5985
620.6000	75.6669
620.5000	75.6746
620.4000	75.6322
620.3000	75.6771
620.2000	75.5218
620.1000	75.6378
620.0000	75.5667
619.9000	75.5221
619.8000	75.5728
619.7000	75.4075
619.6000	75.5029
619.5000	75.4665
619.4000	75.4284
619.3000	75.5255
619.2000	75.3863
619.1000	75.4872
619.0000	75.4562
618.9000	75.4004
618.8000	75.4149
618.7000	75.2989
618.6000	75.3871
618.5000	75.3286
618.4000	75.3225
618.3000	75.4055
618.2000	75.3111
618.1000	75.4164
618.0000	75.3593
617.9000	75.345
617.8000	75.4161
617.7000	75.3148
617.6000	75.4022
617.5000	75.3197
617.4000	75.3529
617.3000	75.4061
617.2000	75.3559
617.1000	75.5007
617.0000	75.5056
616.9000	75.5723
616.8000	75.6543
616.7000	75.6084
616.6000	75.7793
616.5000	75.7393
616.4000	75.8233
616.3000	75.8618
616.2000	75.8487
616.1000	75.9681
616.0000	75.9675
615.9000	76.0816
615.8000	76.0882
615.7000	76.0813
615.6000	76.2261
615.5000	76.1794
615.4000	76.2846
615.3000	76.2668
615.2000	76.3142
615.1000	76.3741
615.0000	76.3338
614.9000	76.469
614.8000	76.4378
614.7000	76.5215
614.6000	76.5318
614.5000	76.5727
614.4000	76.6727
614.3000	76.6703
614.2000	76.7692
614.1000	76.81
614.0000	76.8556
613.9000	76.873
613.8000	76.8767
613.7000	76.9741
613.6000	76.934
613.5000	76.9744
613.4000	76.9811
613.3000	77.0034
613.2000	77.0543
613.1000	77.061
613.0000	77.1228
612.9000	77.0883
612.8000	77.1367
612.7000	77.0852
612.6000	77.0859
612.5000	77.1246
612.4000	77.0638
612.3000	77.1432
612.2000	77.0956
612.1000	77.1299
612.0000	77.1362
611.9000	77.1837
611.8000	77.2333
611.7000	77.1846
611.6000	77.2228
611.5000	77.1967
611.4000	77.2346
611.3000	77.2163
611.2000	77.1604
611.1000	77.199
611.0000	77.1472
610.9000	77.1843
610.8000	77.15
610.7000	77.1474
610.6000	77.1564
610.5000	77.1254
610.4000	77.0966
610.3000	76.9898
610.2000	76.9757
610.1000	76.9403
610.0000	76.9175
609.9000	76.8517
609.8000	76.7932
609.7000	76.8265
609.6000	76.7606
609.5000	76.8434
609.4000	76.7618
609.3000	76.672
609.2000	76.6394
609.1000	76.5974
609.0000	76.6054
608.9000	76.4679
608.8000	76.5337
608.7000	76.4885
608.6000	76.4534
608.5000	76.4367
608.4000	76.3658
608.3000	76.432
608.2000	76.3116
608.1000	76.2427
608.0000	76.2021
607.9000	76.1032
607.8000	76.127
607.7000	76.0549
607.6000	76.0836
607.5000	75.9505
607.4000	75.9089
607.3000	75.8979
607.2000	75.7903
607.1000	75.8381
607.0000	75.7195
606.9000	75.7701
606.8000	75.6749
606.7000	75.6352
606.6000	75.6189
606.5000	75.5881
606.4000	75.5835
606.3000	75.4756
606.2000	75.4891
606.1000	75.4575
606.0000	75.4082
605.9000	75.4608
605.8000	75.3824
605.7000	75.4307
605.6000	75.3497
605.5000	75.381
605.4000	75.3565
605.3000	75.2768
605.2000	75.3523
605.1000	75.2944
605.0000	75.3913
604.9000	75.2845
604.8000	75.322
604.7000	75.3208
604.6000	75.3002
604.5000	75.3628
604.4000	75.2918
604.3000	75.3791
604.2000	75.3083
604.1000	75.3309
604.0000	75.3635
603.9000	75.343
603.8000	75.4268
603.7000	75.3964
603.6000	75.444
603.5000	75.4138
603.4000	75.4418
603.3000	75.5702
603.2000	75.6263
603.1000	75.7173
603.0000	75.6903
602.9000	75.71
602.8000	75.7468
602.7000	75.7358
602.6000	75.8225
602.5000	75.8641
602.4000	75.9399
602.3000	75.9116
602.2000	75.9942
602.1000	76.023
602.0000	76.0826
601.9000	76.1128
601.8000	76.1326
601.7000	76.1227
601.6000	76.1163
601.5000	76.1385
601.4000	76.2264
601.3000	76.2814
601.2000	76.3641
601.1000	76.4062
601.0000	76.4871
600.9000	76.5019
600.8000	76.502
600.7000	76.5748
600.6000	76.5656
600.5000	76.6401
600.4000	76.646
600.3000	76.704
600.2000	76.7574
600.1000	76.8513
600.0000	76.8621
599.9000	76.8885
599.8000	76.9731
599.7000	77.0093
599.6000	77.0122
599.5000	77.0229
599.4000	77.0228
599.3000	77.0494
599.2000	77.0608
599.1000	77.0857
599.0000	77.1302
598.9000	77.1727
598.8000	77.1509
598.7000	77.185
598.6000	77.1926
598.5000	77.1808
598.4000	77.218
598.3000	77.1624
598.2000	77.1865
598.1000	77.127
598.0000	77.1883
597.9000	77.176
597.8000	77.2083
597.7000	77.2319
597.6000	77.201
597.5000	77.1847
597.4000	77.087
597.3000	77.1364
597.2000	77.0381
597.1000	77.0375
597.0000	77.0279
596.9000	76.9911
596.8000	76.8991
596.7000	76.8667
596.6000	76.8445
596.5000	76.8215
596.4000	76.8166
596.3000	76.7488
596.2000	76.7183
596.1000	76.6183
596.0000	76.5976
595.9000	76.5686
595.8000	76.5075
595.7000	76.4333
595.6000	76.421
595.5000	76.3917
595.4000	76.3097
595.3000	76.3272
595.2000	76.3244
595.1000	76.289
595.0000	76.2618
594.9000	76.1719
594.8000	76.1231
594.7000	76.061
594.6000	76.0484
594.5000	75.9553
594.4000	75.9433
594.3000	75.848
594.2000	75.8621
594.1000	75.8138
594.0000	75.7921
593.9000	75.764
593.8000	75.7142
593.7000	75.6999
593.6000	75.5663
593.5000	75.5989
593.4000	75.4614
593.3000	75.5257
593.2000	75.4248
593.1000	75.4384
593.0000	75.4
592.9000	75.4115
592.8000	75.3783
592.7000	75.2949
592.6000	75.3016
592.5000	75.2469
592.4000	75.2694
592.3000	75.1878
592.2000	75.2044
592.1000	75.1504
592.0000	75.1792
591.9000	75.1767
591.8000	75.159
591.7000	75.1779
591.6000	75.1382
591.5000	75.1836
591.4000	75.131
591.3000	75.1314
591.2000	75.1544
591.1000	75.2144
591.0000	75.2439
590.9000	75.2272
590.8000	75.2933
590.7000	75.323
590.6000	75.404
590.5000	75.4229
590.4000	75.4871
590.3000	75.4704
590.2000	75.5084
590.1000	75.5063
590.0000	75.5236
589.9000	75.5669
589.8000	75.6286
589.7000	75.7399
589.6000	75.7408
589.5000	75.8224
589.4000	75.822
589.3000	75.9471
589.2000	75.9399
589.1000	75.9776
589.0000	75.9899
588.9000	76.0109
588.8000	76.0613
588.7000	76.0697
588.6000	76.1827
588.5000	76.2314
588.4000	76.3609
588.3000	76.3564
588.2000	76.4094
588.1000	76.437
588.0000	76.516
587.9000	76.5874
587.8000	76.6324
587.7000	76.6888
587.6000	76.6909
587.5000	76.7887
587.4000	76.7797
587.3000	76.8542
587.2000	76.887
587.1000	76.9433
587.0000	77.0006
586.9000	77.0108
586.8000	77.0493
586.7000	77.0436
586.6000	77.1081
586.5000	77.0642
586.4000	77.0804
586.3000	77.0322
586.2000	77.0828
586.1000	77.0422
586.0000	77.1155
585.9000	77.0828
585.8000	77.1216
585.7000	77.0837
585.6000	77.0734
585.5000	77.0642
585.4000	76.9798
585.3000	77.0067
585.2000	76.9489
585.1000	77.0326
585.0000	76.9767
584.9000	77.0373
584.8000	76.9875
584.7000	76.9896
584.6000	76.9465
584.5000	76.951
584.4000	76.8903
584.3000	76.9047
584.2000	76.8584
584.1000	76.8432
584.0000	76.8528
583.9000	76.8013
583.8000	76.8217
583.7000	76.6825
583.6000	76.7055
583.5000	76.5836
583.4000	76.5911
583.3000	76.472
583.2000	76.4674
583.1000	76.4467
583.0000	76.3985
582.9000	76.3436
582.8000	76.2595
582.7000	76.2183
582.6000	76.1593
582.5000	76.1723
582.4000	76.0689
582.3000	76.1181
582.2000	76.0215
582.1000	76.1019
582.0000	76.0042
581.9000	75.9921
581.8000	75.8708
581.7000	75.8617
581.6000	75.8161
581.5000	75.7497
581.4000	75.7169
581.3000	75.6622
581.2000	75.7073
581.1000	75.5994
581.0000	75.6337
580.9000	75.5459
580.8000	75.6269
580.7000	75.5078
580.6000	75.5675
580.5000	75.4682
580.4000	75.4783
580.3000	75.435
580.2000	75.4102
580.1000	75.4346
580.0000	75.3567
579.9000	75.3714
579.8000	75.3083
579.7000	75.2968
579.6000	75.2302
579.5000	75.3086
579.4000	75.2175
579.3000	75.264
579.2000	75.1372
579.1000	75.2215
579.0000	75.1651
578.9000	75.1866
578.8000	75.2052
578.7000	75.2327
578.6000	75.3212
578.5000	75.2825
578.4000	75.383
578.3000	75.3332
578.2000	75.4601
578.1000	75.4655
578.0000	75.5263
577.9000	75.4715
577.8000	75.5563
577.7000	75.5312
577.6000	75.583
577.5000	75.5294
577.4000	75.552
577.3000	75.6056
577.2000	75.616
577.1000	75.6928
577.0000	75.7031
576.9000	75.8425
576.8000	75.8321
576.7000	75.8949
576.6000	75.8578
576.5000	75.9797
576.4000	75.9925
576.3000	76.1392
576.2000	76.1681
576.1000	76.2387
576.0000	76.275
575.9000	76.3537
575.8000	76.4145
575.7000	76.4549
575.6000	76.5138
575.5000	76.5131
575.4000	76.5802
575.3000	76.4753
575.2000	76.5587
575.1000	76.5939
575.0000	76.671
574.9000	76.6485
574.8000	76.7149
574.7000	76.6675
574.6000	76.7136
574.5000	76.7032
574.4000	76.8098
574.3000	76.851
574.2000	76.9031
574.1000	76.9358
574.0000	76.9619
573.9000	76.9916
573.8000	77.0136
573.7000	77.0732
573.6000	77.0507
573.5000	77.0999
573.4000	77.0689
573.3000	77.0858
573.2000	77.0566
573.1000	77.0906
573.0000	77.0614
572.9000	77.1149
572.8000	77.018
572.7000	77.0358
572.6000	76.9763
572.5000	76.9566
572.4000	76.8674
572.3000	76.8747
572.2000	76.7939
572.1000	76.8236
572.0000	76.7757
571.9000	76.7615
571.8000	76.7221
571.7000	76.6959
571.6000	76.6259
571.5000	76.6263
571.4000	76.5819
571.3000	76.5487
571.2000	76.5151
571.1000	76.4867
571.0000	76.4166
570.9000	76.3686
570.8000	76.3571
570.7000	76.3011
570.6000	76.2759
570.5000	76.2325
570.4000	76.2223
570.3000	76.1539
570.2000	76.1302
570.1000	76.0722
570.0000	76.064
569.9000	75.9541
569.8000	75.9534
569.7000	75.8566
569.6000	75.8513
569.5000	75.7244
569.4000	75.7329
569.3000	75.6346
569.2000	75.6564
569.1000	75.5615
569.0000	75.5767
568.9000	75.4781
568.8000	75.4686
568.7000	75.384
568.6000	75.3902
568.5000	75.3211
568.4000	75.3332
568.3000	75.2808
568.2000	75.2676
568.1000	75.2342
568.0000	75.22
567.9000	75.1961
567.8000	75.1894
567.7000	75.211
567.6000	75.1399
567.5000	75.1641
567.4000	75.1316
567.3000	75.1176
567.2000	75.0748
567.1000	75.1236
567.0000	75.0995
566.9000	75.1262
566.8000	75.1005
566.7000	75.1519
566.6000	75.1303
566.5000	75.1896
566.4000	75.1734
566.3000	75.2418
566.2000	75.2279
566.1000	75.3183
566.0000	75.3736
565.9000	75.4327
565.8000	75.4462
565.7000	75.539
565.6000	75.5662
565.5000	75.6447
565.4000	75.6748
565.3000	75.7444
565.2000	75.7379
565.1000	75.8163
565.0000	75.8567
564.9000	75.9056
564.8000	75.9381
564.7000	76.0099
564.6000	76.0775
564.5000	76.0957
564.4000	76.1199
564.3000	76.1445
564.2000	76.1709
564.1000	76.2552
564.0000	76.3301
563.9000	76.3747
563.8000	76.3976
563.7000	76.473
563.6000	76.5497
563.5000	76.6152
563.4000	76.6832
563.3000	76.7394
563.2000	76.8212
563.1000	76.8577
563.0000	76.8662
562.9000	76.8532
562.8000	76.8542
562.7000	76.9207
562.6000	76.9631
562.5000	76.947
562.4000	76.9626
562.3000	76.9743
562.2000	76.9959
562.1000	76.9907
562.0000	77.0007
561.9000	76.9537
561.8000	76.9374
561.7000	76.9631
561.6000	76.9092
561.5000	76.9224
561.4000	76.903
561.3000	76.9658
561.2000	76.9742
561.1000	76.9272
561.0000	76.898
560.9000	76.9222
560.8000	76.8646
560.7000	76.8307
560.6000	76.8211
560.5000	76.7783
560.4000	76.7444
560.3000	76.7338
560.2000	76.6639
560.1000	76.6175
560.0000	76.5882
559.9000	76.5063
559.8000	76.4857
559.7000	76.4475
559.6000	76.3828
559.5000	76.3594
559.4000	76.3051
559.3000	76.2535
559.2000	76.1743
559.1000	76.1435
559.0000	76.093
558.9000	76.0344
558.8000	75.983
558.7000	75.9224
558.6000	75.8747
558.5000	75.8216
558.4000	75.7797
558.3000	75.7618
558.2000	75.7241
558.1000	75.6479
558.0000	75.6532
557.9000	75.5895
557.8000	75.5575
557.7000	75.4679
557.6000	75.5135
557.5000	75.4473
557.4000	75.4207
557.3000	75.3786
557.2000	75.3697
557.1000	75.3338
557.0000	75.352
556.9000	75.2791
556.8000	75.2865
556.7000	75.2195
556.6000	75.2595
556.5000	75.1547
556.4000	75.1803
556.3000	75.0925
556.2000	75.1163
556.1000	75.1053
556.0000	75.1243
555.9000	75.0823
555.8000	75.1478
555.7000	75.1026
555.6000	75.1568
555.5000	75.1186
555.4000	75.1878
555.3000	75.2117
555.2000	75.2689
555.1000	75.2649
555.0000	75.2956
554.9000	75.357
554.8000	75.3747
554.7000	75.4482
554.6000	75.5041
554.5000	75.5429
554.4000	75.5719
554.3000	75.6491
554.2000	75.6581
554.1000	75.7344
554.0000	75.773
553.9000	75.8436
553.8000	75.8049
553.7000	75.8599
553.6000	75.8679
553.5000	75.979
553.4000	75.9862
553.3000	76.094
553.2000	76.0528
553.1000	76.1131
553.0000	76.1382
552.9000	76.1916
552.8000	76.1999
552.7000	76.2705
552.6000	76.277
552.5000	76.3487
552.4000	76.3425
552.3000	76.4245
552.2000	76.4727
552.1000	76.4806
552.0000	76.5056
551.9000	76.4836
551.8000	76.5438
551.7000	76.5975
551.6000	76.6811
551.5000	76.7077
551.4000	76.7323
551.3000	76.7401
551.2000	76.7728
551.1000	76.7604
551.0000	76.7596
550.9000	76.7818
550.8000	76.8438
550.7000	76.781
550.6000	76.8269
550.5000	76.8247
550.4000	76.824
550.3000	76.8243
550.2000	76.7442
550.1000	76.6775
550.0000	76.6522
549.9000	76.6323
549.8000	76.5831
549.7000	76.5941
549.6000	76.5387
549.5000	76.5306
549.4000	76.4893
549.3000	76.4689
549.2000	76.3916
549.1000	76.4266
549.0000	76.3645
548.9000	76.3539
548.8000	76.2815
548.7000	76.305
548.6000	76.2871
548.5000	76.2251
548.4000	76.2081
548.3000	76.1742
548.2000	76.1108
548.1000	76.05
548.0000	76.0446
547.9000	75.9784
547.8000	75.9438
547.7000	75.8329
547.6000	75.8138
547.5000	75.7168
547.4000	75.7104
547.3000	75.6227
547.2000	75.6471
547.1000	75.5541
547.0000	75.5582
546.9000	75.4995
546.8000	75.4682
546.7000	75.3991
546.6000	75.3962
546.5000	75.3413
546.4000	75.3083
546.3000	75.2665
546.2000	75.294
546.1000	75.3046
546.0000	75.2709
545.9000	75.3132
545.8000	75.2132
545.7000	75.2784
545.6000	75.1932
545.5000	75.2362
545.4000	75.129
545.3000	75.1804
545.2000	75.1063
545.1000	75.1674
545.0000	75.1163
544.9000	75.1249
544.8000	75.1244
544.7000	75.1813
544.6000	75.1923
544.5000	75.2229
544.4000	75.2718
544.3000	75.2569
544.2000	75.3144
544.1000	75.3124
544.0000	75.4228
543.9000	75.3964
543.8000	75.5803
543.7000	75.578
543.6000	75.6854
543.5000	75.6997
543.4000	75.7819
543.3000	75.8338
543.2000	75.8814
543.1000	75.9464
543.0000	75.9608
542.9000	76.0188
542.8000	75.9812
542.7000	76.0229
542.6000	76.0641
542.5000	76.1139
542.4000	76.0979
542.3000	76.1685
542.2000	76.1198
542.1000	76.177
542.0000	76.2274
541.9000	76.2636
541.8000	76.3267
541.7000	76.3119
541.6000	76.3505
541.5000	76.3631
541.4000	76.3962
541.3000	76.4143
541.2000	76.5065
541.1000	76.5237
541.0000	76.5391
540.9000	76.5942
540.8000	76.6653
540.7000	76.6994
540.6000	76.7009
540.5000	76.753
540.4000	76.7504
540.3000	76.7365
540.2000	76.741
540.1000	76.7837
540.0000	76.7752
539.9000	76.7148
539.8000	76.7438
539.7000	76.6816
539.6000	76.6888
539.5000	76.6612
539.4000	76.6788
539.3000	76.5598
539.2000	76.5291
539.1000	76.4955
539.0000	76.4952
538.9000	76.4381
538.8000	76.3791
538.7000	76.3812
538.6000	76.2768
538.5000	76.2341
538.4000	76.1724
538.3000	76.1611
538.2000	76.039
538.1000	76.0573
538.0000	75.9319
537.9000	75.958
537.8000	75.9109
537.7000	75.905
537.6000	75.8385
537.5000	75.7188
537.4000	75.7172
537.3000	75.6147
537.2000	75.6026
537.1000	75.5021
537.0000	75.5317
536.9000	75.4726
536.8000	75.4188
536.7000	75.3901
536.6000	75.4141
536.5000	75.3464
536.4000	75.3372
536.3000	75.2493
536.2000	75.1812
536.1000	75.1662
536.0000	75.1357
535.9000	75.1981
535.8000	75.1062
535.7000	75.1352
535.6000	75.1261
535.5000	75.1314
535.4000	75.102
535.3000	75.0785
535.2000	75.1162
535.1000	75.0618
535.0000	75.0601
534.9000	75.0516
534.8000	75.1028
534.7000	75.1004
534.6000	75.1329
534.5000	75.1035
534.4000	75.0795
534.3000	75.0866
534.2000	75.1309
534.1000	75.1961
534.0000	75.1712
533.9000	75.224
533.8000	75.2469
533.7000	75.3384
533.6000	75.3609
533.5000	75.4257
533.4000	75.482
533.3000	75.5467
533.2000	75.5784
533.1000	75.598
533.0000	75.6447
532.9000	75.7568
532.8000	75.8767
532.7000	75.9025
532.6000	75.9266
532.5000	75.9788
532.4000	76.0224
532.3000	76.0275
532.2000	76.0807
532.1000	76.0922
532.0000	76.1191
531.9000	76.1845
531.8000	76.193
531.7000	76.2331
531.6000	76.2644
531.5000	76.3353
531.4000	76.4037
531.3000	76.3684
531.2000	76.3432
531.1000	76.3614
531.0000	76.3592
530.9000	76.3495
530.8000	76.3859
530.7000	76.44
530.6000	76.4439
530.5000	76.4012
530.4000	76.4216
530.3000	76.4147
530.2000	76.4242
530.1000	76.398
530.0000	76.3836
529.9000	76.3872
529.8000	76.3505
529.7000	76.3607
529.6000	76.3878
529.5000	76.396
529.4000	76.408
529.3000	76.3991
529.2000	76.3655
529.1000	76.3513
529.0000	76.2905
528.9000	76.2891
528.8000	76.2507
528.7000	76.1689
528.6000	76.1314
528.5000	76.0942
528.4000	76.0246
528.3000	75.9819
528.2000	75.9514
528.1000	75.8858
528.0000	75.8441
527.9000	75.8183
527.8000	75.8054
527.7000	75.761
527.6000	75.7222
527.5000	75.6628
527.4000	75.6443
527.3000	75.639
527.2000	75.549
527.1000	75.5615
527.0000	75.5262
526.9000	75.4987
526.8000	75.5019
526.7000	75.4462
526.6000	75.4017
526.5000	75.3893
526.4000	75.3444
526.3000	75.2786
526.2000	75.194
526.1000	75.1712
526.0000	75.0796
525.9000	75.0614
525.8000	74.9793
525.7000	74.9513
525.6000	74.9768
525.5000	74.9151
525.4000	74.8481
525.3000	74.8025
525.2000	74.7797
525.1000	74.7641
525.0000	74.7693
524.9000	74.7851
524.8000	74.7862
524.7000	74.7952
524.6000	74.8431
524.5000	74.863
524.4000	74.9531
524.3000	74.9515
524.2000	75.015
524.1000	75.0247
524.0000	75.045
523.9000	75.0657
523.8000	75.1164
523.7000	75.2405
523.6000	75.2821
523.5000	75.3173
523.4000	75.3389
523.3000	75.3794
523.2000	75.46
523.1000	75.5244
523.0000	75.5739
522.9000	75.5484
522.8000	75.5843
522.7000	75.6304
522.6000	75.6991
522.5000	75.8098
522.4000	75.8656
522.3000	75.9522
522.2000	76.0067
522.1000	76.0308
522.0000	76.0472
521.9000	76.1134
521.8000	76.1551
521.7000	76.2075
521.6000	76.2216
521.5000	76.2624
521.4000	76.2859
521.3000	76.3582
521.2000	76.3607
521.1000	76.428
521.0000	76.4567
520.9000	76.4116
520.8000	76.4093
520.7000	76.3985
520.6000	76.386
520.5000	76.3425
520.4000	76.4033
520.3000	76.3841
520.2000	76.3741
520.1000	76.3444
520.0000	76.2143
519.9000	76.1924
519.8000	76.2227
519.7000	76.2068
519.6000	76.191
519.5000	76.0981
519.4000	76.1019
519.3000	76.0179
519.2000	75.9405
519.1000	75.8859
519.0000	75.8469
518.9000	75.8042
518.8000	75.7586
518.7000	75.7437
518.6000	75.6933
518.5000	75.6595
518.4000	75.6424
518.3000	75.6467
518.2000	75.6051
518.1000	75.5527
518.0000	75.5206
517.9000	75.5039
517.8000	75.4368
517.7000	75.4989
517.6000	75.4606
517.5000	75.4892
517.4000	75.4996
517.3000	75.4564
517.2000	75.4201
517.1000	75.3233
517.0000	75.3493
516.9000	75.3807
516.8000	75.3593
516.7000	75.3256
516.6000	75.2935
516.5000	75.2702
516.4000	75.2421
516.3000	75.2502
516.2000	75.2423
516.1000	75.1811
516.0000	75.1806
515.9000	75.1667
515.8000	75.1232
515.7000	75.1306
515.6000	75.1446
515.5000	75.1789
515.4000	75.1015
515.3000	75.1009
515.2000	75.0994
515.1000	75.0792
515.0000	75.1004
514.9000	75.0776
514.8000	75.0341
514.7000	75.0303
514.6000	75.0882
514.5000	75.1287
514.4000	75.1255
514.3000	75.1326
514.2000	75.1685
514.1000	75.1923
514.0000	75.2722
513.9000	75.3388
513.8000	75.4
513.7000	75.3862
513.6000	75.4261
513.5000	75.4527
513.4000	75.499
513.3000	75.5975
513.2000	75.6989
513.1000	75.7736
513.0000	75.7886
512.9000	75.8419
512.8000	75.9155
512.7000	75.942
512.6000	75.9597
512.5000	75.9976
512.4000	75.9595
512.3000	75.9546
512.2000	75.9849
512.1000	76.0022
512.0000	76.014
511.9000	76.0955
511.8000	76.0977
511.7000	76.1446
511.6000	76.181
511.5000	76.1644
511.4000	76.1239
511.3000	76.1002
511.2000	76.1038
511.1000	76.1451
511.0000	76.1891
510.9000	76.1598
510.8000	76.1683
510.7000	76.1638
510.6000	76.127
510.5000	76.1867
510.4000	76.1495
510.3000	76.0661
510.2000	76.0773
510.1000	75.9796
510.0000	75.899
509.9000	75.8955
509.8000	75.9095
509.7000	75.8864
509.6000	75.8723
509.5000	75.8292
509.4000	75.7813
509.3000	75.7673
509.2000	75.7682
509.1000	75.6849
509.0000	75.6462
508.9000	75.5971
508.8000	75.5417
508.7000	75.5347
508.6000	75.49
508.5000	75.4099
508.4000	75.3656
508.3000	75.3281
508.2000	75.2588
508.1000	75.2614
508.0000	75.1906
507.9000	75.1403
507.8000	75.0998
507.7000	75.0528
507.6000	75.0318
507.5000	75.0258
507.4000	75.0043
507.3000	74.97
507.2000	74.9687
507.1000	74.9374
507.0000	74.9075
506.9000	74.8904
506.8000	74.8998
506.7000	74.8596
506.6000	74.9081
506.5000	74.8943
506.4000	74.8906
506.3000	74.8906
506.2000	74.9333
506.1000	74.9649
506.0000	74.948
505.9000	74.968
505.8000	75.0483
505.7000	75.0527
505.6000	75.0741
505.5000	75.1265
505.4000	75.1546
505.3000	75.2091
505.2000	75.229
505.1000	75.3083
505.0000	75.3148
504.9000	75.3509
504.8000	75.3623
504.7000	75.4235
504.6000	75.4238
504.5000	75.4891
504.4000	75.5321
504.3000	75.611
504.2000	75.6545
504.1000	75.6987
504.0000	75.703
503.9000	75.7322
503.8000	75.7922
503.7000	75.8484
503.6000	75.9443
503.5000	75.9398
503.4000	75.9753
503.3000	76.0046
503.2000	76.027
503.1000	76.0453
503.0000	76.0588
502.9000	76.0825
502.8000	76.0403
502.7000	76.0141
502.6000	75.9978
502.5000	76.018
502.4000	76.114
502.3000	76.0822
502.2000	76.0633
502.1000	76.0991
502.0000	76.0568
501.9000	76.0975
501.8000	76.1045
501.7000	76.039
501.6000	76.0166
501.5000	75.9778
501.4000	75.9607
501.3000	75.8923
501.2000	75.8939
501.1000	75.8925
501.0000	75.8599
500.9000	75.802
500.8000	75.758
500.7000	75.7194
500.6000	75.7068
500.5000	75.6488
500.4000	75.551
500.3000	75.4278
500.2000	75.3645
500.1000	75.2962
500.0000	75.2874
499.9000	75.2278
499.8000	75.1659
499.7000	75.1278
499.6000	75.1087
499.5000	75.0569
499.4000	75.0336
499.3000	74.9893
499.2000	74.9345
499.1000	74.9484
499.0000	74.853
498.9000	74.8208
498.8000	74.8466
498.7000	74.8392
498.6000	74.8216
498.5000	74.8331
498.4000	74.834
498.3000	74.8742
498.2000	74.8518
498.1000	74.889
498.0000	74.902
497.9000	74.9062
497.8000	74.8812
497.7000	74.8691
497.6000	74.8673
497.5000	74.8482
497.4000	74.9206
497.3000	74.9134
497.2000	74.9445
497.1000	74.9917
497.0000	75.0278
496.9000	75.0714
496.8000	75.0954
496.7000	75.0651
496.6000	75.1546
496.5000	75.1841
496.4000	75.2242
496.3000	75.2218
496.2000	75.2258
496.1000	75.333
496.0000	75.3391
495.9000	75.3884
495.8000	75.4332
495.7000	75.5092
495.6000	75.5155
495.5000	75.5224
495.4000	75.5765
495.3000	75.5916
495.2000	75.608
495.1000	75.6879
495.0000	75.6384
494.9000	75.6649
494.8000	75.6996
494.7000	75.6875
494.6000	75.748
494.5000	75.7165
494.4000	75.777
494.3000	75.8177
494.2000	75.761
494.1000	75.7404
494.0000	75.786
493.9000	75.7906
493.8000	75.7797
493.7000	75.8014
493.6000	75.7347
493.5000	75.6952
493.4000	75.7034
493.3000	75.6336
493.2000	75.5764
493.1000	75.6408
493.0000	75.5491
492.9000	75.5502
492.8000	75.557
492.7000	75.4784
492.6000	75.4738
492.5000	75.4645
492.4000	75.4223
492.3000	75.3847
492.2000	75.3304
492.1000	75.2507
492.0000	75.2653
491.9000	75.2444
491.8000	75.2229
491.7000	75.2187
491.6000	75.166
491.5000	75.1141
491.4000	75.1855
491.3000	75.1548
491.2000	75.07
491.1000	75.0641
491.0000	75.0759
490.9000	75.0248
490.8000	74.9732
490.7000	74.9623
490.6000	74.9377
490.5000	74.9253
490.4000	74.9268
490.3000	74.8694
490.2000	74.9056
490.1000	74.89
490.0000	74.9063
489.9000	74.9312
489.8000	74.8716
489.7000	74.8067
489.6000	74.7983
489.5000	74.7859
489.4000	74.7604
489.3000	74.7686
489.2000	74.7667
489.1000	74.7744
489.0000	74.823
488.9000	74.825
488.8000	74.8256
488.7000	74.8845
488.6000	74.9079
488.5000	74.9139
488.4000	74.9317
488.3000	74.9139
488.2000	74.9552
488.1000	75.0806
488.0000	75.1127
487.9000	75.1947
487.8000	75.2518
487.7000	75.2703
487.6000	75.3085
487.5000	75.3682
487.4000	75.3959
487.3000	75.4795
487.2000	75.5011
487.1000	75.5231
487.0000	75.5011
486.9000	75.5082
486.8000	75.5179
486.7000	75.5656
486.6000	75.6284
486.5000	75.5755
486.4000	75.5664
486.3000	75.5657
486.2000	75.5494
486.1000	75.5922
486.0000	75.6276
485.9000	75.6338
485.8000	75.5984
485.7000	75.6064
485.6000	75.6293
485.5000	75.625
485.4000	75.6195
485.3000	75.6889
485.2000	75.6841
485.1000	75.6786
485.0000	75.6131
484.9000	75.6044
484.8000	75.6344
484.7000	75.6168
484.6000	75.6055
484.5000	75.5622
484.4000	75.5261
484.3000	75.4699
484.2000	75.4615
484.1000	75.4011
484.0000	75.3646
483.9000	75.3096
483.8000	75.3197
483.7000	75.2186
483.6000	75.1778
483.5000	75.1009
483.4000	75.0658
483.3000	75.0186
483.2000	74.9422
483.1000	74.8706
483.0000	74.8344
482.9000	74.8035
482.8000	74.8058
482.7000	74.7968
482.6000	74.7565
482.5000	74.7192
482.4000	74.6646
482.3000	74.6496
482.2000	74.597
482.1000	74.6053
482.0000	74.5984
481.9000	74.5931
481.8000	74.5975
481.7000	74.6166
481.6000	74.6645
481.5000	74.692
481.4000	74.6791
481.3000	74.6751
481.2000	74.6679
481.1000	74.6831
481.0000	74.738
480.9000	74.7899
480.8000	74.8977
480.7000	74.9465
480.6000	74.982
480.5000	74.9705
480.4000	74.9963
480.3000	75.009
480.2000	75.0596
480.1000	75.0613
480.0000	75.0386
479.9000	75.0829
479.8000	75.1373
479.7000	75.2087
479.6000	75.2332
479.5000	75.2499
479.4000	75.2183
479.3000	75.2064
479.2000	75.178
479.1000	75.1574
479.0000	75.1835
478.9000	75.2273
478.8000	75.2663
478.7000	75.3356
478.6000	75.369
478.5000	75.4446
478.4000	75.4534
478.3000	75.4147
478.2000	75.4307
478.1000	75.3649
478.0000	75.3742
477.9000	75.3158
477.8000	75.3081
477.7000	75.3597
477.6000	75.3065
477.5000	75.3655
477.4000	75.3379
477.3000	75.3206
477.2000	75.275
477.1000	75.2196
477.0000	75.185
476.9000	75.105
476.8000	75.0692
476.7000	75.0328
476.6000	74.9882
476.5000	74.96
476.4000	74.8988
476.3000	74.9135
476.2000	74.8461
476.1000	74.8125
476.0000	74.849
475.9000	74.7662
475.8000	74.754
475.7000	74.7603
475.6000	74.8007
475.5000	74.7906
475.4000	74.7557
475.3000	74.7461
475.2000	74.7262
475.1000	74.7188
475.0000	74.7147
474.9000	74.7062
474.8000	74.7206
474.7000	74.6995
474.6000	74.7511
474.5000	74.7084
474.4000	74.665
474.3000	74.6959
474.2000	74.6779
474.1000	74.6257
474.0000	74.5434
473.9000	74.5694
473.8000	74.5416
473.7000	74.5045
473.6000	74.5607
473.5000	74.5976
473.4000	74.5885
473.3000	74.6913
473.2000	74.7156
473.1000	74.744
473.0000	74.7924
472.9000	74.8204
472.8000	74.8216
472.7000	74.8192
472.6000	74.8542
472.5000	74.9346
472.4000	75.0458
472.3000	75.0135
472.2000	75.065
472.1000	75.1372
472.0000	75.1474
471.9000	75.1296
471.8000	75.1784
471.7000	75.1828
471.6000	75.1811
471.5000	75.2108
471.4000	75.2101
471.3000	75.2577
471.2000	75.3487
471.1000	75.3682
471.0000	75.3634
470.9000	75.3602
470.8000	75.3385
470.7000	75.3743
470.6000	75.3961
470.5000	75.412
470.4000	75.4158
470.3000	75.4626
470.2000	75.3917
470.1000	75.3566
470.0000	75.3539
469.9000	75.3173
469.8000	75.2626
469.7000	75.2223
469.6000	75.2003
469.5000	75.2024
469.4000	75.187
469.3000	75.1397
469.2000	75.0829
469.1000	75.0263
469.0000	74.9633
468.9000	74.8883
468.8000	74.8744
468.7000	74.8395
468.6000	74.8636
468.5000	74.8507
468.4000	74.8068
468.3000	74.7609
468.2000	74.7518
468.1000	74.7307
468.0000	74.6818
467.9000	74.6308
467.8000	74.6448
467.7000	74.6189
467.6000	74.6211
467.5000	74.6173
467.4000	74.59
467.3000	74.558
467.2000	74.5016
467.1000	74.4718
467.0000	74.4539
466.9000	74.3992
466.8000	74.4031
466.7000	74.4428
466.6000	74.4633
466.5000	74.4137
466.4000	74.3751
466.3000	74.3788
466.2000	74.3465
466.1000	74.3871
466.0000	74.3906
465.9000	74.4262
465.8000	74.4323
465.7000	74.4649
465.6000	74.5402
465.5000	74.5691
465.4000	74.5872
465.3000	74.6511
465.2000	74.6847
465.1000	74.7137
465.0000	74.7153
464.9000	74.7824
464.8000	74.8295
464.7000	74.8787
464.6000	74.9076
464.5000	74.8986
464.4000	74.9117
464.3000	74.9111
464.2000	74.9824
464.1000	75.0414
464.0000	75.0222
463.9000	75.0637
463.8000	75.063
463.7000	75.0583
463.6000	75.0733
463.5000	75.1169
463.4000	75.1278
463.3000	75.0992
463.2000	75.0836
463.1000	75.0685
463.0000	75.0488
462.9000	75.0224
462.8000	75.0054
462.7000	74.9882
462.6000	74.9379
462.5000	74.9172
462.4000	74.893
462.3000	74.8485
462.2000	74.8101
462.1000	74.7689
462.0000	74.7252
461.9000	74.6193
461.8000	74.5863
461.7000	74.5859
461.6000	74.5865
461.5000	74.5649
461.4000	74.5686
461.3000	74.5599
461.2000	74.5552
461.1000	74.5265
461.0000	74.5036
460.9000	74.435
460.8000	74.4319
460.7000	74.4091
460.6000	74.3748
460.5000	74.3676
460.4000	74.3376
460.3000	74.3456
460.2000	74.3175
460.1000	74.2749
460.0000	74.2343
459.9000	74.2134
459.8000	74.1633
459.7000	74.1522
459.6000	74.1622
459.5000	74.1708
459.4000	74.2046
459.3000	74.2758
459.2000	74.2794
459.1000	74.2912
459.0000	74.3294
458.9000	74.3206
458.8000	74.3645
458.7000	74.3747
458.6000	74.3891
458.5000	74.4487
458.4000	74.4968
458.3000	74.5211
458.2000	74.5708
458.1000	74.5953
458.0000	74.5428
457.9000	74.6094
457.8000	74.6553
457.7000	74.6489
457.6000	74.6758
457.5000	74.6673
457.4000	74.7249
457.3000	74.7543
457.2000	74.7815
457.1000	74.7817
457.0000	74.8171
456.9000	74.8069
456.8000	74.831
456.7000	74.8224
456.6000	74.8178
456.5000	74.8908
456.4000	74.9221
456.3000	74.8769
456.2000	74.7989
456.1000	74.8211
456.0000	74.8157
455.9000	74.82
455.8000	74.7884
455.7000	74.814
455.6000	74.77
455.5000	74.7547
455.4000	74.7136
455.3000	74.7114
455.2000	74.7056
455.1000	74.7181
455.0000	74.6864
454.9000	74.6149
454.8000	74.6361
454.7000	74.6207
454.6000	74.6082
454.5000	74.5076
454.4000	74.4651
454.3000	74.4328
454.2000	74.4076
454.1000	74.3354
454.0000	74.3043
453.9000	74.2817
453.8000	74.2808
453.7000	74.2556
453.6000	74.2067
453.5000	74.2041
453.4000	74.1737
453.3000	74.1412
453.2000	74.103
453.1000	74.0867
453.0000	74.0893
452.9000	74.092
452.8000	74.0744
452.7000	74.0842
452.6000	74.0514
452.5000	74.0635
452.4000	74.1283
452.3000	74.1832
452.2000	74.1869
452.1000	74.1863
452.0000	74.22
451.9000	74.2161
451.8000	74.2611
451.7000	74.2784
451.6000	74.3061
451.5000	74.3125
451.4000	74.3445
451.3000	74.3953
451.2000	74.5148
451.1000	74.5553
451.0000	74.5289
450.9000	74.6036
450.8000	74.5601
450.7000	74.5635
450.6000	74.6039
450.5000	74.6133
450.4000	74.6419
450.3000	74.6609
450.2000	74.6962
450.1000	74.721
450.0000	74.7467
449.9000	74.773
449.8000	74.8067
449.7000	74.8301
449.6000	74.7585
449.5000	74.7174
449.4000	74.8061
449.3000	74.7768
449.2000	74.7578
449.1000	74.6949
449.0000	74.6618
448.9000	74.6736
448.8000	74.635
448.7000	74.6479
448.6000	74.5925
448.5000	74.5083
448.4000	74.4528
448.3000	74.4752
448.2000	74.4374
448.1000	74.4211
448.0000	74.3296
447.9000	74.3012
447.8000	74.2742
447.7000	74.2126
447.6000	74.1848
447.5000	74.1901
447.4000	74.1806
447.3000	74.1575
447.2000	74.1272
447.1000	74.0789
447.0000	74.0384
446.9000	74.0583
446.8000	74.0021
446.7000	73.9835
446.6000	73.9994
446.5000	73.9483
446.4000	74.014
446.3000	74.0483
446.2000	74.0803
446.1000	74.1033
446.0000	74.0992
445.9000	74.1237
445.8000	74.1724
445.7000	74.1779
445.6000	74.1562
445.5000	74.1165
445.4000	74.1559
445.3000	74.1458
445.2000	74.2372
445.1000	74.2167
445.0000	74.1623
444.9000	74.1876
444.8000	74.1644
444.7000	74.1768
444.6000	74.1442
444.5000	74.1587
444.4000	74.2535
444.3000	74.2878
444.2000	74.3023
444.1000	74.3335
444.0000	74.3496
443.9000	74.4412
443.8000	74.4615
443.7000	74.5118
443.6000	74.4811
443.5000	74.5102
443.4000	74.6049
443.3000	74.6014
443.2000	74.5759
443.1000	74.556
443.0000	74.5366
442.9000	74.5726
442.8000	74.5481
442.7000	74.52
442.6000	74.4286
442.5000	74.3884
442.4000	74.3633
442.3000	74.2499
442.2000	74.2482
442.1000	74.2197
442.0000	74.1873
441.9000	74.1538
441.8000	74.0942
441.7000	74.0405
441.6000	74.0479
441.5000	74.0254
441.4000	74.0407
441.3000	74.0022
441.2000	73.9082
441.1000	73.8308
441.0000	73.8088
440.9000	73.7645
440.8000	73.7892
440.7000	73.8408
440.6000	73.8256
440.5000	73.8246
440.4000	73.8394
440.3000	73.7956
440.2000	73.7259
440.1000	73.7943
440.0000	73.9038
439.9000	73.9031
439.8000	73.8972
439.7000	73.9452
439.6000	74.0233
439.5000	74.0864
439.4000	74.1763
439.3000	74.2486
439.2000	74.2969
439.1000	74.2767
439.0000	74.3269
438.9000	74.4087
438.8000	74.507
438.7000	74.5436
438.6000	74.6097
438.5000	74.6039
438.4000	74.5222
438.3000	74.526
438.2000	74.5013
438.1000	74.4754
438.0000	74.4701
437.9000	74.4986
437.8000	74.5046
437.7000	74.4763
437.6000	74.5001
437.5000	74.5537
437.4000	74.5246
437.3000	74.4622
437.2000	74.3798
437.1000	74.4564
437.0000	74.4716
436.9000	74.4607
436.8000	74.4867
436.7000	74.4548
436.6000	74.4654
436.5000	74.3973
436.4000	74.365
436.3000	74.3699
436.2000	74.3219
436.1000	74.2999
436.0000	74.1866
435.9000	74.0039
435.8000	73.9883
435.7000	73.877
435.6000	73.8734
435.5000	73.7485
435.4000	73.6464
435.3000	73.5734
435.2000	73.5001
435.1000	73.5439
435.0000	73.5294
434.9000	73.4993
434.8000	73.4281
434.7000	73.4004
434.6000	73.3883
434.5000	73.3363
434.4000	73.3972
434.3000	73.4884
434.2000	73.4603
434.1000	73.4863
434.0000	73.4303
433.9000	73.4606
433.8000	73.532
433.7000	73.62
433.6000	73.6459
433.5000	73.6494
433.4000	73.6802
433.3000	73.7013
433.2000	73.807
433.1000	73.7869
433.0000	73.7944
432.9000	73.8626
432.8000	73.8764
432.7000	73.914
432.6000	73.937
432.5000	74.0267
432.4000	74.0685
432.3000	74.0707
432.2000	74.0705
432.1000	74.0862
432.0000	74.1156
431.9000	74.0987
431.8000	74.0854
431.7000	74.1451
431.6000	74.1208
431.5000	74.0766
431.4000	74.1116
431.3000	74.1182
431.2000	74.0051
431.1000	74.0438
431.0000	74.0112
430.9000	74.0256
430.8000	74.0818
430.7000	74.066
430.6000	74.0208
430.5000	73.9323
430.4000	73.8598
430.3000	73.8738
430.2000	73.8086
430.1000	73.6982
430.0000	73.6212
429.9000	73.5934
429.8000	73.565
429.7000	73.5236
429.6000	73.591
429.5000	73.4977
429.4000	73.4406
429.3000	73.374
429.2000	73.2453
429.1000	73.2383
429.0000	73.2384
428.9000	73.2821
428.8000	73.2587
428.7000	73.2164
428.6000	73.2521
428.5000	73.2829
428.4000	73.2733
428.3000	73.3401
428.2000	73.3037
428.1000	73.3196
428.0000	73.3204
427.9000	73.3661
427.8000	73.4412
427.7000	73.4382
427.6000	73.5368
427.5000	73.5585
427.4000	73.5262
427.3000	73.5625
427.2000	73.6209
427.1000	73.6707
427.0000	73.7163
426.9000	73.7676
426.8000	73.8216
426.7000	73.815
426.6000	73.8166
426.5000	73.7849
426.4000	73.7521
426.3000	73.7179
426.2000	73.7152
426.1000	73.7645
426.0000	73.7774
425.9000	73.7328
425.8000	73.7503
425.7000	73.7192
425.6000	73.74
425.5000	73.6907
425.4000	73.5968
425.3000	73.5395
425.2000	73.5388
425.1000	73.5144
425.0000	73.4532
424.9000	73.4771
424.8000	73.4518
424.7000	73.4628
424.6000	73.415
424.5000	73.3252
424.4000	73.2108
424.3000	73.1843
424.2000	73.1136
424.1000	73.0518
424.0000	72.9911
423.9000	72.9613
423.8000	72.9533
423.7000	72.9436
423.6000	72.9643
423.5000	72.9362
423.4000	73.0026
423.3000	72.9944
423.2000	73.0261
423.1000	73.0332
423.0000	73.0385
422.9000	73.081
422.8000	73.1336
422.7000	73.1968
422.6000	73.2818
422.5000	73.2772
422.4000	73.2325
422.3000	73.2875
422.2000	73.3818
422.1000	73.4101
422.0000	73.3755
421.9000	73.4409
421.8000	73.4675
421.7000	73.445
421.6000	73.5087
421.5000	73.5176
421.4000	73.5784
421.3000	73.5829
421.2000	73.6672
421.1000	73.637
421.0000	73.6451
420.9000	73.6704
420.8000	73.7147
420.7000	73.6973
420.6000	73.6709
420.5000	73.6373
420.4000	73.6369
420.3000	73.5733
420.2000	73.5211
420.1000	73.5036
420.0000	73.3528
419.9000	73.286
419.8000	73.2968
419.7000	73.2256
419.6000	73.197
419.5000	73.1423
419.4000	73.093
419.3000	73.0189
419.2000	72.9949
419.1000	72.9642
419.0000	72.9999
418.9000	72.891
418.8000	72.7941
418.7000	72.8071
418.6000	72.7751
418.5000	72.7735
418.4000	72.7014
418.3000	72.6293
418.2000	72.5816
418.1000	72.6349
418.0000	72.6686
417.9000	72.7476
417.8000	72.758
417.7000	72.7826
417.6000	72.844
417.5000	72.8555
417.4000	72.9051
417.3000	72.9655
417.2000	73.1395
417.1000	73.1703
417.0000	73.2536
416.9000	73.2475
416.8000	73.2683
416.7000	73.2692
416.6000	73.2281
416.5000	73.2799
416.4000	73.2553
416.3000	73.197
416.2000	73.2359
416.1000	73.199
416.0000	73.2161
415.9000	73.2032
415.8000	73.1571
415.7000	73.0847
415.6000	72.9101
415.5000	72.7955
415.4000	72.7927
415.3000	72.8775
415.2000	72.9031
415.1000	72.8797
415.0000	72.825
414.9000	72.6951
414.8000	72.6363
414.7000	72.5846
414.6000	72.5126
414.5000	72.4961
414.4000	72.4288
414.3000	72.4158
414.2000	72.4257
414.1000	72.4235
414.0000	72.4538
413.9000	72.5312
413.8000	72.3846
413.7000	72.267
413.6000	72.2664
413.5000	72.2298
413.4000	72.2559
413.3000	72.289
413.2000	72.3064
413.1000	72.3404
413.0000	72.3467
412.9000	72.3709
412.8000	72.5061
412.7000	72.5156
412.6000	72.5992
412.5000	72.5492
412.4000	72.563
412.3000	72.5618
412.2000	72.6328
412.1000	72.7043
412.0000	72.7298
411.9000	72.801
411.8000	72.8526
411.7000	72.9092
411.6000	72.9093
411.5000	72.966
411.4000	73.0334
411.3000	73.0088
411.2000	72.9174
411.1000	72.9566
411.0000	72.9038
410.9000	73.0258
410.8000	73.064
410.7000	73.039
410.6000	72.9893
410.5000	72.9589
410.4000	72.9072
410.3000	72.9134
410.2000	72.8515
410.1000	72.733
410.0000	72.6876
409.9000	72.5599
409.8000	72.4388
409.7000	72.3744
409.6000	72.2883
409.5000	72.167
409.4000	72.1887
409.3000	72.1399
409.2000	72.1292
409.1000	72.1091
409.0000	72.1037
408.9000	72.0763
408.8000	72.0661
408.7000	72.0498
408.6000	72.0984
408.5000	72.226
408.4000	72.26
408.3000	72.3421
408.2000	72.4243
408.1000	72.4814
408.0000	72.5153
407.9000	72.571
407.8000	72.524
407.7000	72.5489
407.6000	72.6093
407.5000	72.7789
407.4000	72.865
407.3000	72.9395
407.2000	72.8915
407.1000	72.8498
407.0000	72.9066
406.9000	72.7971
406.8000	72.7496
406.7000	72.7059
406.6000	72.6702
406.5000	72.6178
406.4000	72.6424
406.3000	72.5707
406.2000	72.511
406.1000	72.44
406.0000	72.3271
405.9000	72.1246
405.8000	72.0276
405.7000	71.925
405.6000	71.9798
405.5000	71.9622
405.4000	71.874
405.3000	71.8372
405.2000	71.8424
405.1000	71.8763
405.0000	71.8606
404.9000	71.8745
404.8000	71.8072
404.7000	71.8498
404.6000	71.8705
404.5000	71.89
404.4000	71.915
404.3000	71.9677
404.2000	71.9971
404.1000	72.0673
404.0000	72.1085
403.9000	72.201
403.8000	72.1563
403.7000	72.1763
403.6000	72.1499
403.5000	72.1492
403.4000	72.0737
403.3000	72.1037
403.2000	72.1602
403.1000	72.207
403.0000	72.242
402.9000	72.278
402.8000	72.204
402.7000	72.2477
402.6000	72.2106
402.5000	72.2571
402.4000	72.1749
402.3000	72.1171
402.2000	72.1765
402.1000	72.2679
402.0000	72.276
401.9000	72.1936
401.8000	72.2076
401.7000	72.1579
401.6000	72.1391
401.5000	71.9995
401.4000	71.8961
401.3000	71.82
401.2000	71.7649
401.1000	71.6851
401.0000	71.638
400.9000	71.5503
400.8000	71.5318
400.7000	71.5432
400.6000	71.4783
400.5000	71.3387
400.4000	71.3001
400.3000	71.2556
400.2000	71.191
400.1000	71.2186
400.0000	71.187
399.9000	71.2342
399.8000	71.3149
399.7000	71.3917
399.6000	71.4334
399.5000	71.4302
399.4000	71.454
399.3000	71.4467
399.2000	71.4966
399.1000	71.4706
399.0000	71.4944
398.9000	71.5742
398.8000	71.636
398.7000	71.6567
398.6000	71.6856
398.5000	71.6876
398.4000	71.6922
398.3000	71.6265
398.2000	71.5701
398.1000	71.5051
398.0000	71.489
397.9000	71.4631
397.8000	71.4741
397.7000	71.4076
397.6000	71.3937
397.5000	71.328
397.4000	71.2974
397.3000	71.3057
397.2000	71.2231
397.1000	71.1553
397.0000	71.1277
396.9000	71.0454
396.8000	70.9834
396.7000	70.9722
396.6000	70.965
396.5000	70.9638
396.4000	70.972
396.3000	70.9652
396.2000	70.9526
396.1000	70.9776
396.0000	70.9327
395.9000	70.9488
395.8000	70.9605
395.7000	70.841
395.6000	70.779
395.5000	70.8265
395.4000	70.8568
395.3000	70.9654
395.2000	70.9414
395.1000	70.9689
395.0000	70.9032
394.9000	70.8845
394.8000	70.8406
394.7000	70.8786
394.6000	70.8395
394.5000	70.8112
394.4000	70.7407
394.3000	70.7794
394.2000	70.7065
394.1000	70.7526
394.0000	70.8517
393.9000	70.9046
393.8000	70.9231
393.7000	70.7618
393.6000	70.7967
393.5000	70.8078
393.4000	70.8534
393.3000	70.8156
393.2000	70.7706
393.1000	70.6451
393.0000	70.6322
392.9000	70.5953
392.8000	70.6299
392.7000	70.5429
392.6000	70.5599
392.5000	70.5365
392.4000	70.4828
392.3000	70.4044
392.2000	70.3731
392.1000	70.4135
392.0000	70.3461
391.9000	70.3409
391.8000	70.3223
391.7000	70.2808
391.6000	70.3481
391.5000	70.4302
391.4000	70.43
391.3000	70.3888
391.2000	70.3448
391.1000	70.3189
391.0000	70.3314
390.9000	70.2997
390.8000	70.358
390.7000	70.3107
390.6000	70.2877
390.5000	70.2716
390.4000	70.3082
390.3000	70.2417
390.2000	70.2094
390.1000	70.2154
390.0000	70.156
389.9000	70.0768
389.8000	70.049
389.7000	70.0282
389.6000	69.9511
389.5000	69.8939
389.4000	69.872
389.3000	69.8536
389.2000	69.7912
389.1000	69.8064
389.0000	69.741
388.9000	69.6647
388.8000	69.5984
388.7000	69.5971
388.6000	69.5876
388.5000	69.5361
388.4000	69.4715
388.3000	69.4579
388.2000	69.4206
388.1000	69.4613
388.0000	69.4376
387.9000	69.4727
387.8000	69.4678
387.7000	69.4077
387.6000	69.3395
387.5000	69.3705
387.4000	69.3756
387.3000	69.3502
387.2000	69.3678
387.1000	69.3546
387.0000	69.2829
386.9000	69.2094
386.8000	69.184
386.7000	69.0968
386.6000	69.1242
386.5000	69.0221
386.4000	69.0059
386.3000	68.9344
386.2000	68.7337
386.1000	68.769
386.0000	68.7427
385.9000	68.6403
385.8000	68.6148
385.7000	68.5667
385.6000	68.5032
385.5000	68.4203
385.4000	68.3509
385.3000	68.3771
385.2000	68.38
385.1000	68.4006
385.0000	68.3387
384.9000	68.451
384.8000	68.4636
384.7000	68.4774
384.6000	68.6108
384.5000	68.5522
384.4000	68.5353
384.3000	68.5564
384.2000	68.5494
384.1000	68.5968
384.0000	68.5529
383.9000	68.5436
383.8000	68.5899
383.7000	68.6044
383.6000	68.5764
383.5000	68.5478
383.4000	68.3985
383.3000	68.193
383.2000	68.1148
383.1000	67.9854
383.0000	67.9405
382.9000	67.9148
382.8000	67.8585
382.7000	67.7893
382.6000	67.6592
382.5000	67.6409
382.4000	67.6305
382.3000	67.55
382.2000	67.4399
382.1000	67.3132
382.0000	67.1779
381.9000	67.1852
381.8000	67.2662
381.7000	67.2931
381.6000	67.2548
381.5000	67.2897
381.4000	67.1734
381.3000	67.1283
381.2000	67.0651
381.1000	66.9587
381.0000	67.0091
380.9000	66.8962
380.8000	66.7747
380.7000	66.7307
380.6000	66.7075
380.5000	66.6416
380.4000	66.6313
380.3000	66.5009
380.2000	66.3631
380.1000	66.2449
380.0000	66.2581
379.9000	66.1261
379.8000	66.0565
379.7000	65.9851
379.6000	65.9066
379.5000	65.8504
379.4000	65.6475
379.3000	65.583
379.2000	65.6251
379.1000	65.5646
379.0000	65.4756
378.9000	65.41
378.8000	65.3901
378.7000	65.3559
378.6000	65.3367
378.5000	65.364
378.4000	65.2466
378.3000	65.1628
378.2000	65.0463
378.1000	64.8916
378.0000	64.8056
377.9000	64.7698
377.8000	64.7546
377.7000	64.5903
377.6000	64.412
377.5000	64.3492
377.4000	64.2311
377.3000	64.1679
377.2000	63.9745
377.1000	63.8445
377.0000	63.6999
376.9000	63.5361
376.8000	63.3977
376.7000	63.2804
376.6000	63.2159
376.5000	63.1668
376.4000	63.0113
376.3000	62.9114
376.2000	62.8086
376.1000	62.711
376.0000	62.62
375.9000	62.4195
375.8000	62.3558
375.7000	62.2464
375.6000	62.15
375.5000	61.9898
375.4000	61.8909
375.3000	61.7677
375.2000	61.5669
375.1000	61.4182
375.0000	61.241
374.9000	61.0152
374.8000	60.9168
374.7000	60.65
374.6000	60.4201
374.5000	60.234
374.4000	60.0691
374.3000	59.9342
374.2000	59.6661
374.1000	59.4096
374.0000	59.1647
373.9000	58.9238
373.8000	58.7032
373.7000	58.402
373.6000	58.1614
373.5000	57.9051
373.4000	57.6112
373.3000	57.3113
373.2000	57.0606
373.1000	56.6937
373.0000	56.4341
372.9000	56.1411
372.8000	55.7691
372.7000	55.4016
372.6000	55.0214
372.5000	54.6013
372.4000	54.211
372.3000	53.8456
372.2000	53.455
372.1000	53.0463
372.0000	52.6355
371.9000	52.1888
371.8000	51.7122
371.7000	51.2
371.6000	50.5836
371.5000	50.1791
371.4000	49.5944
371.3000	49.0353
371.2000	48.4156
371.1000	47.8453
371.0000	47.2978
370.9000	46.7208
370.8000	46.1804
370.7000	45.6081
370.6000	44.8849
370.5000	44.1562
370.4000	43.5468
370.3000	42.7942
370.2000	42.1148
370.1000	41.4235
370.0000	40.7388
369.9000	40.0585
369.8000	39.328
369.7000	38.4972
369.6000	37.6169
369.5000	36.7504
369.4000	35.904
369.3000	35.0058
369.2000	34.129
369.1000	33.2735
369.0000	32.3343
368.9000	31.4556
368.8000	30.5016
368.7000	29.6712
368.6000	28.7329
368.5000	27.7351
368.4000	26.6996
368.3000	25.6579
368.2000	24.6706
368.1000	23.6406
368.0000	22.6781
367.9000	21.7379
367.8000	20.8027
367.7000	19.923
367.6000	18.9908
367.5000	18.0093
367.4000	17.0109
367.3000	16.0057
367.2000	15.0635
367.1000	14.0824
367.0000	13.1263
366.9000	12.2253
366.8000	11.3749
366.7000	10.5515
366.6000	9.71137
366.5000	8.92199
366.4000	8.12717
366.3000	7.39299
366.2000	6.66809
366.1000	5.96417
366.0000	5.3229
365.9000	4.74986
365.8000	4.21904
365.7000	3.72137
365.6000	3.25284
365.5000	2.83323
365.4000	2.46566
365.3000	2.13383
365.2000	1.84643
365.1000	1.56989
365.0000	1.3538
364.9000	1.15242
364.8000	0.988955
364.7000	0.850842
364.6000	0.738446
364.5000	0.644364
364.4000	0.568612
364.3000	0.500931
364.2000	0.45207
364.1000	0.423799
364.0000	0.39672
363.9000	0.374865
363.8000	0.35605
363.7000	0.34747
363.6000	0.331084
363.5000	0.329734
363.4000	0.330351
363.3000	0.312743
363.2000	0.299631
363.1000	0.296889
363.0000	0.297087
362.9000	0.29685
362.8000	0.285329
362.7000	0.284418
362.6000	0.289069
362.5000	0.297245
362.4000	0.295812
362.3000	0.297749
362.2000	0.303752
362.1000	0.302594
362.0000	0.30811
361.9000	0.303028
361.8000	0.304416
361.7000	0.313247
361.6000	0.326462
361.5000	0.330166
361.4000	0.331377
361.3000	0.332019
361.2000	0.341169
361.1000	0.339233
361.0000	0.330093
360.9000	0.320852
360.8000	0.32447
360.7000	0.326078
360.6000	0.322513
360.5000	0.321298
360.4000	0.322465
360.3000	0.311972
360.2000	0.306118
360.1000	0.303552
360.0000	0.296415
359.9000	0.285926
359.8000	0.289037
359.7000	0.28739
359.6000	0.28654
359.5000	0.286241
359.4000	0.28249
359.3000	0.282493
359.2000	0.281388
359.1000	0.284473
359.0000	0.284396
358.9000	0.280348
358.8000	0.276648
358.7000	0.288902
358.6000	0.290768
358.5000	0.292107
358.4000	0.295632
358.3000	0.302072
358.2000	0.30387
358.1000	0.303462
358.0000	0.300598
357.9000	0.305337
357.8000	0.314358
357.7000	0.315142
357.6000	0.317783
357.5000	0.317955
357.4000	0.316454
357.3000	0.319289
357.2000	0.323061
357.1000	0.324545
357.0000	0.325413
356.9000	0.327232
356.8000	0.333348
356.7000	0.330617
356.6000	0.326749
356.5000	0.331949
356.4000	0.333887
356.3000	0.327772
356.2000	0.3304
356.1000	0.328576
356.0000	0.322878
355.9000	0.326167
355.8000	0.326553
355.7000	0.330368
355.6000	0.32351
355.5000	0.318651
355.4000	0.315959
355.3000	0.316907
355.2000	0.309528
355.1000	0.309372
355.0000	0.312778
354.9000	0.307271
354.8000	0.306721
354.7000	0.312978
354.6000	0.29646
354.5000	0.30259
354.4000	0.2996
354.3000	0.287286
354.2000	0.286651
354.1000	0.285776
354.0000	0.285904
353.9000	0.297074
353.8000	0.29441
353.7000	0.297724
353.6000	0.31188
353.5000	0.308433
353.4000	0.307686
353.3000	0.313492
353.2000	0.309184
353.1000	0.308183
353.0000	0.313007
352.9000	0.312666
352.8000	0.312942
352.7000	0.316299
352.6000	0.322151
352.5000	0.323798
352.4000	0.332976
352.3000	0.334939
352.2000	0.340329
352.1000	0.340307
352.0000	0.326506
351.9000	0.331385
351.8000	0.332061
351.7000	0.328307
351.6000	0.32779
351.5000	0.328439
351.4000	0.331508
351.3000	0.331218
351.2000	0.334222
351.1000	0.33614
351.0000	0.330821
350.9000	0.320297
350.8000	0.314125
350.7000	0.302289
350.6000	0.314204
350.5000	0.317296
350.4000	0.321388
350.3000	0.330587
350.2000	0.334987
350.1000	0.333357
350.0000	0.339392
349.9000	0.336184
349.8000	0.337374
349.7000	0.336212
349.6000	0.33276
349.5000	0.337366
349.4000	0.335993
349.3000	0.346714
349.2000	0.355804
349.1000	0.361404
349.0000	0.352517
348.9000	0.349466
348.8000	0.346995
348.7000	0.34217
348.6000	0.335076
348.5000	0.335164
348.4000	0.343654
348.3000	0.337471
348.2000	0.341032
348.1000	0.342247
348.0000	0.343803
347.9000	0.346614
347.8000	0.355555
347.7000	0.349266
347.6000	0.348568
347.5000	0.343052
347.4000	0.347412
347.3000	0.345214
347.2000	0.342261
347.1000	0.332193
347.0000	0.324508
346.9000	0.33426
346.8000	0.329721
346.7000	0.338795
346.6000	0.343355
346.5000	0.334601
346.4000	0.342787
346.3000	0.34161
346.2000	0.33113
346.1000	0.332595
346.0000	0.337686
345.9000	0.342785
345.8000	0.330968
345.7000	0.333207
345.6000	0.346236
345.5000	0.356548
345.4000	0.37071
345.3000	0.362347
345.2000	0.356259
345.1000	0.362121
345.0000	0.351524
344.9000	0.35826
344.8000	0.353293
344.7000	0.355596
344.6000	0.35711
344.5000	0.369807
344.4000	0.355754
344.3000	0.345452
344.2000	0.347521
344.1000	0.341922
344.0000	0.341367
343.9000	0.340641
343.8000	0.330754
343.7000	0.337218
343.6000	0.350755
343.5000	0.348379
343.4000	0.356677
343.3000	0.362415
343.2000	0.359517
343.1000	0.348813
343.0000	0.364103
342.9000	0.35548
342.8000	0.363045
342.7000	0.380038
342.6000	0.38611
342.5000	0.383064
342.4000	0.378781
342.3000	0.376471
342.2000	0.38793
342.1000	0.400242
342.0000	0.397258
341.9000	0.395154
341.8000	0.400847
341.7000	0.397659
341.6000	0.388392
341.5000	0.403446
341.4000	0.401824
341.3000	0.414172
341.2000	0.415183
341.1000	0.409873
341.0000	0.401434
340.9000	0.409782
340.8000	0.407026
340.7000	0.423774
340.6000	0.423669
340.5000	0.414194
340.4000	0.41781
340.3000	0.425695
340.2000	0.420053
340.1000	0.42971
340.0000	0.263503
339.9000	0.276504
339.8000	0.269506
339.7000	0.261335
339.6000	0.268844
339.5000	0.254407
339.4000	0.252403
339.3000	0.236123
339.2000	0.245156
339.1000	0.249955
339.0000	0.25661
338.9000	0.250089
338.8000	0.255432
338.7000	0.273841
338.6000	0.271924
338.5000	0.244308
338.4000	0.248032
338.3000	0.232183
338.2000	0.227079
338.1000	0.228405
338.0000	0.214379
337.9000	0.215392
337.8000	0.217651
337.7000	0.233086
337.6000	0.242688
337.5000	0.260484
337.4000	0.245472
337.3000	0.248821
337.2000	0.2573
337.1000	0.246229
337.0000	0.238039
336.9000	0.259938
336.8000	0.286057
336.7000	0.276452
336.6000	0.290834
336.5000	0.298719
336.4000	0.309808
336.3000	0.290747
336.2000	0.291907
336.1000	0.298847
336.0000	0.280453
335.9000	0.278289
335.8000	0.271318
335.7000	0.28811
335.6000	0.287476
335.5000	0.276624
335.4000	0.275694
335.3000	0.254356
335.2000	0.250921
335.1000	0.264938
335.0000	0.261075
334.9000	0.239535
334.8000	0.250091
334.7000	0.265296
334.6000	0.259618
334.5000	0.252182
334.4000	0.269986
334.3000	0.255173
334.2000	0.272691
334.1000	0.252363
334.0000	0.249279
333.9000	0.253173
333.8000	0.257791
333.7000	0.27838
333.6000	0.266987
333.5000	0.277414
333.4000	0.267504
333.3000	0.292788
333.2000	0.281076
333.1000	0.2716
333.0000	0.277952
332.9000	0.256253
332.8000	0.243677
332.7000	0.247542
332.6000	0.246717
332.5000	0.260261
332.4000	0.265647
332.3000	0.264219
332.2000	0.255906
332.1000	0.250998
332.0000	0.25821
331.9000	0.261813
331.8000	0.28578
331.7000	0.263787
331.6000	0.243895
331.5000	0.245261
331.4000	0.242101
331.3000	0.251925
331.2000	0.251649
331.1000	0.242257
331.0000	0.248216
330.9000	0.233735
330.8000	0.236252
330.7000	0.24149
330.6000	0.242025
330.5000	0.236663
330.4000	0.229821
330.3000	0.224288
330.2000	0.211342
330.1000	0.21113
330.0000	0.22856
329.9000	0.23014
329.8000	0.219445
329.7000	0.219407
329.6000	0.217882
329.5000	0.212486
329.4000	0.221031
329.3000	0.229254
329.2000	0.229663
329.1000	0.22109
329.0000	0.231049
328.9000	0.223204
328.8000	0.199515
328.7000	0.192711
328.6000	0.180028
328.5000	0.207534
328.4000	0.210728
328.3000	0.191872
328.2000	0.203877
328.1000	0.198657
328.0000	0.196254
327.9000	0.209729
327.8000	0.209533
327.7000	0.215049
327.6000	0.192235
327.5000	0.197463
327.4000	0.188847
327.3000	0.199899
327.2000	0.207254
327.1000	0.194889
327.0000	0.209899
326.9000	0.213287
326.8000	0.21128
326.7000	0.219087
326.6000	0.220359
326.5000	0.222249
326.4000	0.226769
326.3000	0.22806
326.2000	0.237906
326.1000	0.235837
326.0000	0.249071
325.9000	0.255011
325.8000	0.244559
325.7000	0.260601
325.6000	0.255779
325.5000	0.259881
325.4000	0.26213
325.3000	0.250978
325.2000	0.243172
325.1000	0.25201
325.0000	0.252111
324.9000	0.262789
324.8000	0.267016
324.7000	0.259668
324.6000	0.240238
324.5000	0.251875
324.4000	0.247938
324.3000	0.241632
324.2000	0.2564
324.1000	0.222198
324.0000	0.239908
323.9000	0.245646
323.8000	0.246816
323.7000	0.237158
323.6000	0.238216
323.5000	0.246328
323.4000	0.228929
323.3000	0.204373
323.2000	0.200948
323.1000	0.204338
323.0000	0.196596
322.9000	0.186614
322.8000	0.182478
322.7000	0.181854
322.6000	0.181412
322.5000	0.189626
322.4000	0.186691
322.3000	0.182629
322.2000	0.170907
322.1000	0.16229
322.0000	0.176425
321.9000	0.157979
321.8000	0.169779
321.7000	0.176058
321.6000	0.164238
321.5000	0.158548
321.4000	0.177267
321.3000	0.167416
321.2000	0.185736
321.1000	0.19441
321.0000	0.188487
320.9000	0.197374
320.8000	0.199518
320.7000	0.199963
320.6000	0.219168
320.5000	0.229685
320.4000	0.227411
320.3000	0.228049
320.2000	0.227579
320.1000	0.219725
320.0000	0.214528
319.9000	0.202113
319.8000	0.186842
319.7000	0.195504
319.6000	0.186469
319.5000	0.177946
319.4000	0.187036
319.3000	0.194969
319.2000	0.185495
319.1000	0.196181
319.0000	0.175199
318.9000	0.167567
318.8000	0.158568
318.7000	0.163847
318.6000	0.167475
318.5000	0.183863
318.4000	0.201556
318.3000	0.221254
318.2000	0.237608
318.1000	0.219844
318.0000	0.214692
317.9000	0.2212
317.8000	0.237265
317.7000	0.225101
317.6000	0.232567
317.5000	0.225698
317.4000	0.231029
317.3000	0.246071
317.2000	0.250308
317.1000	0.240943
317.0000	0.245053
316.9000	0.24125
316.8000	0.245587
316.7000	0.243385
316.6000	0.239894
316.5000	0.248652
316.4000	0.259362
316.3000	0.241278
316.2000	0.212849
316.1000	0.212138
316.0000	0.208586
315.9000	0.203677
315.8000	0.205452
315.7000	0.201398
315.6000	0.193976
315.5000	0.215241
315.4000	0.205553
315.3000	0.222361
315.2000	0.21046
315.1000	0.212301
315.0000	0.19606
314.9000	0.198613
314.8000	0.183036
314.7000	0.179285
314.6000	0.199129
314.5000	0.199958
314.4000	0.19754
314.3000	0.209479
314.2000	0.20732
314.1000	0.203041
314.0000	0.210525
313.9000	0.191219
313.8000	0.190414
313.7000	0.176911
313.6000	0.1889
313.5000	0.181067
313.4000	0.176305
313.3000	0.176886
313.2000	0.174114
313.1000	0.186293
313.0000	0.171006
312.9000	0.162905
312.8000	0.169781
312.7000	0.163264
312.6000	0.163937
312.5000	0.161097
312.4000	0.157093
312.3000	0.161803
312.2000	0.153282
312.1000	0.166892
312.0000	0.139697
311.9000	0.146447
311.8000	0.14037
311.7000	0.140369
311.6000	0.152776
311.5000	0.160649
311.4000	0.155535
311.3000	0.166769
311.2000	0.162197
311.1000	0.154802
311.0000	0.151163
310.9000	0.143045
310.8000	0.136176
310.7000	0.150236
310.6000	0.169657
310.5000	0.160768
310.4000	0.189338
310.3000	0.191963
310.2000	0.206628
310.1000	0.200084
310.0000	0.207388
309.9000	0.201794
309.8000	0.202221
309.7000	0.19038
309.6000	0.192171
309.5000	0.193793
309.4000	0.195091
309.3000	0.202093
309.2000	0.209841
309.1000	0.197269
309.0000	0.193182
308.9000	0.195736
308.8000	0.189595
308.7000	0.180035
308.6000	0.182518
308.5000	0.191672
308.4000	0.17692
308.3000	0.169084
308.2000	0.183216
308.1000	0.195387
308.0000	0.196274
307.9000	0.217875
307.8000	0.217772
307.7000	0.231359
307.6000	0.23377
307.5000	0.228798
307.4000	0.228766
307.3000	0.222069
307.2000	0.208476
307.1000	0.210924
307.0000	0.21053
306.9000	0.192654
306.8000	0.188497
306.7000	0.196332
306.6000	0.19412
306.5000	0.190081
306.4000	0.192941
306.3000	0.162092
306.2000	0.165977
306.1000	0.158463
306.0000	0.149642
305.9000	0.152108
305.8000	0.142739
305.7000	0.140237
305.6000	0.168788
305.5000	0.1701
305.4000	0.174881
305.3000	0.201856
305.2000	0.204505
305.1000	0.202554
305.0000	0.193286
304.9000	0.199914
304.8000	0.190368
304.7000	0.204211
304.6000	0.193646
304.5000	0.194169
304.4000	0.194208
304.3000	0.19574
304.2000	0.194014
304.1000	0.20037
304.0000	0.184797
303.9000	0.185618
303.8000	0.183147
303.7000	0.180525
303.6000	0.190983
303.5000	0.190436
303.4000	0.19328
303.3000	0.193551
303.2000	0.197338
303.1000	0.192296
303.0000	0.201067
302.9000	0.197981
302.8000	0.183912
302.7000	0.185334
302.6000	0.199157
302.5000	0.190006
302.4000	0.193594
302.3000	0.189308
302.2000	0.182653
302.1000	0.172742
302.0000	0.152361
301.9000	0.148708
301.8000	0.144967
301.7000	0.137047
301.6000	0.1335
301.5000	0.125962
301.4000	0.124051
301.3000	0.118178
301.2000	0.12755
301.1000	0.131299
301.0000	0.116904
300.9000	0.124089
300.8000	0.120266
300.7000	0.132805
300.6000	0.138484
300.5000	0.148777
300.4000	0.160097
300.3000	0.169526
300.2000	0.170574
300.1000	0.174095
300.0000	0.173456
