TITLE	p-GaN
DATA TYPE	ULTRAVIOLET SPECTRUM
ORIGIN	JASCO
OWNER	
DATE	21/05/05
TIME	12:05:40
SPECTROMETER/DATA SYSTEM	
RESOLUTION	
DELTAX	-1
XUNITS	NANOMETERS
YUNITS	TRANSMITTANCE
FIRSTX	  850.0000
LASTX	  250.0000
NPOINTS	     601
FIRSTY	    71.84466
MAXY	    80.26244
MINY	    -0.14054
XYDATA
850.0000	71.8447
849.0000	70.8937
848.0000	69.7733
847.0000	69.6932
846.0000	69.007
845.0000	68.7542
844.0000	68.6367
843.0000	68.639
842.0000	69.1019
841.0000	69.8585
840.0000	70.4364
839.0000	71.59
838.0000	73.2441
837.0000	74.6536
836.0000	75.8593
835.0000	77.1384
834.0000	78.2127
833.0000	78.9872
832.0000	79.3268
831.0000	79.4176
830.0000	79.0703
829.0000	79.1114
828.0000	78.1533
827.0000	77.0791
826.0000	76.2953
825.0000	75.4563
824.0000	74.2666
823.0000	73.0797
822.0000	72.289
821.0000	71.7258
820.0000	70.8955
819.0000	70.1136
818.0000	69.6152
817.0000	69.4498
816.0000	69.5579
815.0000	70.2459
814.0000	71.0045
813.0000	71.7963
812.0000	72.92
811.0000	74.3675
810.0000	75.1671
809.0000	76.4056
808.0000	77.6153
807.0000	78.457
806.0000	79.1778
805.0000	79.6406
804.0000	79.3008
803.0000	79.2433
802.0000	78.39
801.0000	77.1713
800.0000	75.8341
799.0000	74.2204
798.0000	72.9881
797.0000	71.7174
796.0000	70.6774
795.0000	69.5951
794.0000	69.5477
793.0000	69.1085
792.0000	69.5544
791.0000	70.301
790.0000	71.1012
789.0000	72.0939
788.0000	73.1954
787.0000	74.5977
786.0000	76.1099
785.0000	77.343
784.0000	78.1365
783.0000	79.2253
782.0000	79.8656
781.0000	80.2624
780.0000	79.783
779.0000	79.1936
778.0000	78.111
777.0000	76.903
776.0000	75.7165
775.0000	74.0794
774.0000	73.0488
773.0000	71.5355
772.0000	70.679
771.0000	70.143
770.0000	69.5868
769.0000	69.8061
768.0000	70.0188
767.0000	70.8691
766.0000	71.8999
765.0000	73.2746
764.0000	74.7002
763.0000	76.1682
762.0000	77.2712
761.0000	78.0402
760.0000	78.9454
759.0000	79.4515
758.0000	79.2888
757.0000	78.8556
756.0000	78.3264
755.0000	77.5193
754.0000	76.2421
753.0000	74.7441
752.0000	73.5865
751.0000	72.2949
750.0000	71.1849
749.0000	70.1977
748.0000	69.8413
747.0000	70.022
746.0000	70.2717
745.0000	71.0291
744.0000	72.2055
743.0000	73.6183
742.0000	75.1591
741.0000	76.3612
740.0000	77.8473
739.0000	78.7194
738.0000	79.2856
737.0000	79.4342
736.0000	79.0212
735.0000	78.3029
734.0000	77.4209
733.0000	76.0415
732.0000	74.6533
731.0000	73.4181
730.0000	72.1157
729.0000	71.3418
728.0000	70.5213
727.0000	70.2971
726.0000	70.4644
725.0000	70.8623
724.0000	71.6814
723.0000	72.9026
722.0000	74.357
721.0000	75.7536
720.0000	77.2192
719.0000	78.5685
718.0000	79.4561
717.0000	79.9623
716.0000	79.6986
715.0000	78.914
714.0000	77.7442
713.0000	76.3028
712.0000	74.5806
711.0000	72.9966
710.0000	71.7823
709.0000	70.9947
708.0000	70.4858
707.0000	70.4516
706.0000	71.0143
705.0000	71.8243
704.0000	73.1437
703.0000	74.6419
702.0000	76.1283
701.0000	77.4846
700.0000	78.4769
699.0000	79.2125
698.0000	79.4009
697.0000	78.8973
696.0000	78.0668
695.0000	76.909
694.0000	75.4807
693.0000	73.9089
692.0000	72.5867
691.0000	71.6684
690.0000	70.9562
689.0000	70.8491
688.0000	71.2278
687.0000	72.1794
686.0000	73.5095
685.0000	74.9742
684.0000	76.4468
683.0000	77.7953
682.0000	78.9159
681.0000	79.3825
680.0000	79.4421
679.0000	78.7471
678.0000	77.6339
677.0000	76.3225
676.0000	74.7728
675.0000	73.2177
674.0000	71.8569
673.0000	71.036
672.0000	70.7556
671.0000	71.0962
670.0000	71.7663
669.0000	73.0136
668.0000	74.3331
667.0000	76.0134
666.0000	77.3075
665.0000	78.4064
664.0000	78.8356
663.0000	78.8245
662.0000	78.3512
661.0000	77.2299
660.0000	75.9237
659.0000	74.3012
658.0000	72.8332
657.0000	71.7611
656.0000	71.1448
655.0000	71.0298
654.0000	71.6221
653.0000	72.7333
652.0000	74.1028
651.0000	75.9003
650.0000	77.2388
649.0000	78.3152
648.0000	78.9094
647.0000	78.6224
646.0000	78.0011
645.0000	76.7111
644.0000	75.3022
643.0000	73.7196
642.0000	72.2941
641.0000	71.5211
640.0000	71.2526
639.0000	71.5999
638.0000	72.5429
637.0000	73.7994
636.0000	75.2636
635.0000	76.8599
634.0000	78.0877
633.0000	78.8197
632.0000	78.7676
631.0000	78.0165
630.0000	76.9143
629.0000	75.294
628.0000	73.6962
627.0000	72.3628
626.0000	71.6167
625.0000	71.4659
624.0000	71.9059
623.0000	73.0024
622.0000	74.5047
621.0000	76.0633
620.0000	77.4184
619.0000	78.3638
618.0000	78.5589
617.0000	78.0512
616.0000	76.8636
615.0000	75.3226
614.0000	73.749
613.0000	72.464
612.0000	71.7427
611.0000	71.5125
610.0000	72.0988
609.0000	73.2797
608.0000	74.6943
607.0000	76.2492
606.0000	77.5136
605.0000	78.128
604.0000	77.8623
603.0000	77.1308
602.0000	75.8485
601.0000	74.3815
600.0000	73.4461
599.0000	72.4736
598.0000	72.0481
597.0000	72.3621
596.0000	73.3828
595.0000	74.4672
594.0000	76.1385
593.0000	77.2322
592.0000	77.922
591.0000	77.8706
590.0000	77.0935
589.0000	75.725
588.0000	74.1171
587.0000	72.8229
586.0000	72.0931
585.0000	71.9823
584.0000	72.6597
583.0000	73.8472
582.0000	75.5998
581.0000	76.8262
580.0000	77.7957
579.0000	77.849
578.0000	77.1811
577.0000	75.8524
576.0000	74.3366
575.0000	73.0081
574.0000	72.1998
573.0000	72.1965
572.0000	72.5917
571.0000	73.8762
570.0000	75.3881
569.0000	76.4417
568.0000	77.0959
567.0000	77.0745
566.0000	76.5546
565.0000	75.554
564.0000	74.2555
563.0000	73.2292
562.0000	72.8122
561.0000	73.0416
560.0000	73.9375
559.0000	74.9826
558.0000	76.1511
557.0000	76.8903
556.0000	77.1265
555.0000	76.6233
554.0000	75.408
553.0000	74.104
552.0000	72.9573
551.0000	72.6142
550.0000	73.0707
549.0000	73.9072
548.0000	75.1061
547.0000	76.2422
546.0000	76.7505
545.0000	76.7495
544.0000	75.8879
543.0000	74.4478
542.0000	73.1964
541.0000	72.4262
540.0000	72.5076
539.0000	73.2661
538.0000	74.1832
537.0000	75.5435
536.0000	76.4314
535.0000	76.4092
534.0000	75.9645
533.0000	74.7001
532.0000	73.7276
531.0000	72.921
530.0000	72.7958
529.0000	73.5552
528.0000	74.6501
527.0000	75.643
526.0000	76.0831
525.0000	76.0208
524.0000	75.1701
523.0000	74.1081
522.0000	72.8651
521.0000	72.4541
520.0000	72.9164
519.0000	73.8426
518.0000	74.8374
517.0000	75.732
516.0000	76.0314
515.0000	75.6816
514.0000	74.7495
513.0000	73.6995
512.0000	73.2023
511.0000	73.192
510.0000	73.8143
509.0000	74.6314
508.0000	75.3251
507.0000	75.4621
506.0000	74.9918
505.0000	74.0617
504.0000	73.1961
503.0000	72.843
502.0000	73.2058
501.0000	74.0021
500.0000	74.9298
499.0000	75.4974
498.0000	75.2754
497.0000	74.6183
496.0000	73.7817
495.0000	73.1917
494.0000	72.9911
493.0000	73.481
492.0000	74.212
491.0000	74.5874
490.0000	74.7831
489.0000	74.2027
488.0000	73.5254
487.0000	73.1748
486.0000	73.1121
485.0000	73.7031
484.0000	74.2675
483.0000	74.6688
482.0000	74.5659
481.0000	74.0937
480.0000	73.4595
479.0000	73.1861
478.0000	73.2801
477.0000	73.7887
476.0000	74.2207
475.0000	74.3153
474.0000	74.2268
473.0000	73.751
472.0000	73.4608
471.0000	73.2509
470.0000	73.5938
469.0000	73.9781
468.0000	74.0224
467.0000	74.0311
466.0000	73.7014
465.0000	73.424
464.0000	73.3306
463.0000	73.4865
462.0000	73.706
461.0000	73.7274
460.0000	73.6079
459.0000	73.307
458.0000	73.2931
457.0000	73.4132
456.0000	73.4757
455.0000	73.4398
454.0000	73.4478
453.0000	73.4948
452.0000	73.5203
451.0000	73.3482
450.0000	73.175
449.0000	73.0644
448.0000	73.1249
447.0000	73.2158
446.0000	73.2055
445.0000	73.161
444.0000	73.0614
443.0000	72.9598
442.0000	72.7627
441.0000	72.8774
440.0000	73.1265
439.0000	73.3489
438.0000	73.1419
437.0000	72.8053
436.0000	72.673
435.0000	72.863
434.0000	73.1598
433.0000	73.0913
432.0000	72.7188
431.0000	72.2622
430.0000	72.256
429.0000	72.5629
428.0000	72.8511
427.0000	72.7379
426.0000	72.2759
425.0000	72.0341
424.0000	72.3594
423.0000	72.9011
422.0000	72.83
421.0000	72.2
420.0000	71.52
419.0000	71.8895
418.0000	72.438
417.0000	72.2806
416.0000	71.2852
415.0000	70.715
414.0000	71.1481
413.0000	71.5986
412.0000	71.4973
411.0000	70.8063
410.0000	70.8442
409.0000	71.5233
408.0000	71.9267
407.0000	71.1447
406.0000	70.406
405.0000	70.663
404.0000	70.9583
403.0000	70.7065
402.0000	69.9162
401.0000	70.1732
400.0000	70.937
399.0000	70.6835
398.0000	70.0494
397.0000	70.0738
396.0000	70.1907
395.0000	69.8802
394.0000	69.0902
393.0000	69.0697
392.0000	69.1283
391.0000	68.8445
390.0000	68.6569
389.0000	69.0433
388.0000	68.8282
387.0000	68.5189
386.0000	68.477
385.0000	68.2894
384.0000	67.9374
383.0000	67.4491
382.0000	66.8764
381.0000	66.3939
380.0000	65.6092
379.0000	64.6674
378.0000	64.2075
377.0000	62.8355
376.0000	61.797
375.0000	60.4158
374.0000	58.4326
373.0000	55.8116
372.0000	52.2362
371.0000	47.2162
370.0000	40.8944
369.0000	33.2449
368.0000	25.5535
367.0000	18.3414
366.0000	11.96
365.0000	7.00748
364.0000	3.36572
363.0000	1.188
362.0000	0.286677
361.0000	0.136678
360.0000	0.0739588
359.0000	0.0390771
358.0000	0.03373
357.0000	0.0368143
356.0000	0.0752431
355.0000	0.017187
354.0000	0.0203664
353.0000	0.0558526
352.0000	0.0318438
351.0000	0.0176234
350.0000	-0.00200492
349.0000	0.0588036
348.0000	0.0959521
347.0000	0.0738177
346.0000	0.0861818
345.0000	0.0774219
344.0000	0.0564146
343.0000	0.0734515
342.0000	0.0815042
341.0000	0.055978
340.0000	0.0800093
339.0000	0.0236511
338.0000	-0.0311602
337.0000	-0.0412406
336.0000	0.0414599
335.0000	0.0621741
334.0000	0.0171675
333.0000	0.0894581
332.0000	0.206948
331.0000	0.157763
330.0000	0.208172
329.0000	0.0893869
328.0000	0.0592719
327.0000	0.0778582
326.0000	0.0802313
325.0000	0.0609203
324.0000	0.156557
323.0000	0.0902344
322.0000	0.148467
321.0000	0.21419
320.0000	0.227501
319.0000	0.199262
318.0000	0.13484
317.0000	0.0814191
316.0000	0.103028
315.0000	-0.0409338
314.0000	-0.00629109
313.0000	0.0202612
312.0000	-0.0117004
311.0000	0.0533989
310.0000	0.0583041
309.0000	0.0363614
308.0000	0.0802427
307.0000	-0.0447056
306.0000	0.00286189
305.0000	-0.00667191
304.0000	-0.11175
303.0000	-0.0261924
302.0000	-0.0808797
301.0000	0.024841
300.0000	-0.140544
299.0000	0.019849
298.0000	0.0251636
297.0000	0.0422279
296.0000	0.108006
295.0000	0.0626894
294.0000	0.145923
293.0000	0.137733
292.0000	0.119301
291.0000	0.117668
290.0000	0.0748546
289.0000	0.161815
288.0000	0.0609967
287.0000	0.0404947
286.0000	0.0228795
285.0000	0.0569999
284.0000	0.00171715
283.0000	-0.0339994
282.0000	0.0525479
281.0000	0.0576321
280.0000	0.102216
279.0000	0.083083
278.0000	0.0841642
277.0000	0.0587059
276.0000	-0.0120981
275.0000	-0.0664698
274.0000	-0.0565388
273.0000	-0.0634317
272.0000	-0.01393
271.0000	-0.0409816
270.0000	0.005122
269.0000	0.0922676
268.0000	0.0932037
267.0000	0.0538134
266.0000	0.0491397
265.0000	0.0804291
264.0000	0.0145368
263.0000	0.0266115
262.0000	0.0839642
261.0000	0.0647536
260.0000	0.0641118
259.0000	0.0256238
258.0000	0.0162421
257.0000	-0.0287758
256.0000	-0.0171186
255.0000	-0.0572036
254.0000	-0.044287
253.0000	-0.0334532
252.0000	0.0383562
251.0000	0.0769386
250.0000	0.021851
