TITLE	13.1_NP_0
DATA TYPE	ULTRAVIOLET SPECTRUM
ORIGIN	JASCO
OWNER	
DATE	21/04/29
TIME	11:52:29
SPECTROMETER/DATA SYSTEM	
RESOLUTION	
DELTAX	-0.1
XUNITS	NANOMETERS
YUNITS	TRANSMITTANCE
FIRSTX	  850.0000
LASTX	  300.0000
NPOINTS	    5501
FIRSTY	    79.82161
MAXY	    83.77694
MINY	     0.00060
XYDATA
850.0000	79.8216
849.9000	79.7746
849.8000	79.7362
849.7000	79.69
849.6000	79.6373
849.5000	79.5788
849.4000	79.5259
849.3000	79.4595
849.2000	79.3974
849.1000	79.3271
849.0000	79.2564
848.9000	79.188
848.8000	79.1072
848.7000	79.0292
848.6000	78.9508
848.5000	78.8618
848.4000	78.7694
848.3000	78.68
848.2000	78.5899
848.1000	78.4921
848.0000	78.3946
847.9000	78.2952
847.8000	78.1956
847.7000	78.1013
847.6000	78.0007
847.5000	77.8958
847.4000	77.7786
847.3000	77.6698
847.2000	77.5608
847.1000	77.4486
847.0000	77.3316
846.9000	77.2118
846.8000	77.0933
846.7000	76.9766
846.6000	76.8464
846.5000	76.7211
846.4000	76.5992
846.3000	76.4723
846.2000	76.3397
846.1000	76.2165
846.0000	76.0867
845.9000	75.9542
845.8000	75.826
845.7000	75.6985
845.6000	75.572
845.5000	75.4405
845.4000	75.3083
845.3000	75.1794
845.2000	75.055
845.1000	74.9271
845.0000	74.7981
844.9000	74.6696
844.8000	74.5396
844.7000	74.4028
844.6000	74.271
844.5000	74.1291
844.4000	73.9997
844.3000	73.8644
844.2000	73.7391
844.1000	73.6082
844.0000	73.481
843.9000	73.3536
843.8000	73.2246
843.7000	73.1034
843.6000	72.9758
843.5000	72.8578
843.4000	72.7427
843.3000	72.6208
843.2000	72.502
843.1000	72.3826
843.0000	72.2721
842.9000	72.1575
842.8000	72.0512
842.7000	71.9441
842.6000	71.8321
842.5000	71.7249
842.4000	71.6219
842.3000	71.5191
842.2000	71.4203
842.1000	71.3234
842.0000	71.2213
841.9000	71.1262
841.8000	71.0308
841.7000	70.9368
841.6000	70.8467
841.5000	70.7651
841.4000	70.6808
841.3000	70.6066
841.2000	70.5239
841.1000	70.451
841.0000	70.3712
840.9000	70.2956
840.8000	70.225
840.7000	70.1626
840.6000	70.1
840.5000	70.0321
840.4000	69.9767
840.3000	69.9144
840.2000	69.8584
840.1000	69.8056
840.0000	69.7561
839.9000	69.7061
839.8000	69.6555
839.7000	69.6124
839.6000	69.5668
839.5000	69.5253
839.4000	69.4913
839.3000	69.4558
839.2000	69.4302
839.1000	69.4079
839.0000	69.3844
838.9000	69.3697
838.8000	69.3541
838.7000	69.3381
838.6000	69.3259
838.5000	69.3183
838.4000	69.3163
838.3000	69.3126
838.2000	69.3171
838.1000	69.3234
838.0000	69.3231
837.9000	69.3277
837.8000	69.3457
837.7000	69.3643
837.6000	69.3831
837.5000	69.4055
837.4000	69.4278
837.3000	69.4608
837.2000	69.4905
837.1000	69.5206
837.0000	69.5542
836.9000	69.5944
836.8000	69.6393
836.7000	69.6872
836.6000	69.7402
836.5000	69.7894
836.4000	69.8474
836.3000	69.9066
836.2000	69.9656
836.1000	70.0284
836.0000	70.0893
835.9000	70.1539
835.8000	70.2236
835.7000	70.288
835.6000	70.3633
835.5000	70.4432
835.4000	70.5273
835.3000	70.6187
835.2000	70.7054
835.1000	70.7966
835.0000	70.8823
834.9000	70.9706
834.8000	71.0713
834.7000	71.1719
834.6000	71.2694
834.5000	71.37
834.4000	71.474
834.3000	71.576
834.2000	71.6894
834.1000	71.7904
834.0000	71.9002
833.9000	72.0175
833.8000	72.1345
833.7000	72.2504
833.6000	72.3677
833.5000	72.4943
833.4000	72.6186
833.3000	72.7451
833.2000	72.868
833.1000	72.9938
833.0000	73.1222
832.9000	73.2495
832.8000	73.3746
832.7000	73.503
832.6000	73.6347
832.5000	73.7714
832.4000	73.9025
832.3000	74.0358
832.2000	74.1722
832.1000	74.3018
832.0000	74.4341
831.9000	74.5639
831.8000	74.7053
831.7000	74.8395
831.6000	74.977
831.5000	75.1102
831.4000	75.2451
831.3000	75.387
831.2000	75.5212
831.1000	75.6545
831.0000	75.7827
830.9000	75.9243
830.8000	76.0592
830.7000	76.1925
830.6000	76.3203
830.5000	76.4518
830.4000	76.5808
830.3000	76.707
830.2000	76.8366
830.1000	76.9652
830.0000	77.0881
829.9000	77.2157
829.8000	77.3376
829.7000	77.4643
829.6000	77.5947
829.5000	77.7197
829.4000	77.8378
829.3000	77.9574
829.2000	78.0748
829.1000	78.1885
829.0000	78.2979
828.9000	78.4069
828.8000	78.5155
828.7000	78.6264
828.6000	78.7262
828.5000	78.8264
828.4000	78.925
828.3000	79.0205
828.2000	79.1142
828.1000	79.2035
828.0000	79.293
827.9000	79.3767
827.8000	79.4612
827.7000	79.5369
827.6000	79.6105
827.5000	79.6852
827.4000	79.7597
827.3000	79.8249
827.2000	79.8905
827.1000	79.9457
827.0000	80.0061
826.9000	80.0566
826.8000	80.1109
826.7000	80.1534
826.6000	80.1964
826.5000	80.2297
826.4000	80.2604
826.3000	80.2893
826.2000	80.3202
826.1000	80.3383
826.0000	80.3527
825.9000	80.3691
825.8000	80.3815
825.7000	80.3895
825.6000	80.3962
825.5000	80.392
825.4000	80.3876
825.3000	80.3783
825.2000	80.369
825.1000	80.3543
825.0000	80.333
824.9000	80.3094
824.8000	80.2816
824.7000	80.254
824.6000	80.2225
824.5000	80.1886
824.4000	80.1508
824.3000	80.1072
824.2000	80.0608
824.1000	80.0102
824.0000	79.9599
823.9000	79.904
823.8000	79.8393
823.7000	79.777
823.6000	79.7086
823.5000	79.6398
823.4000	79.5676
823.3000	79.4943
823.2000	79.417
823.1000	79.335
823.0000	79.2514
822.9000	79.168
822.8000	79.0819
822.7000	78.9854
822.6000	78.8817
822.5000	78.7808
822.4000	78.6799
822.3000	78.5732
822.2000	78.4703
822.1000	78.3647
822.0000	78.25
821.9000	78.1406
821.8000	78.0246
821.7000	77.9024
821.6000	77.7814
821.5000	77.6636
821.4000	77.5378
821.3000	77.4135
821.2000	77.2836
821.1000	77.1466
821.0000	77.013
820.9000	76.8831
820.8000	76.7438
820.7000	76.6095
820.6000	76.4766
820.5000	76.3385
820.4000	76.2014
820.3000	76.0638
820.2000	75.9241
820.1000	75.7824
820.0000	75.6439
819.9000	75.5036
819.8000	75.3555
819.7000	75.2127
819.6000	75.0685
819.5000	74.9246
819.4000	74.7894
819.3000	74.6391
819.2000	74.493
819.1000	74.3551
819.0000	74.2091
818.9000	74.0679
818.8000	73.9243
818.7000	73.784
818.6000	73.6482
818.5000	73.5166
818.4000	73.3779
818.3000	73.2404
818.2000	73.1029
818.1000	72.9692
818.0000	72.8325
817.9000	72.7044
817.8000	72.5756
817.7000	72.4436
817.6000	72.318
817.5000	72.1941
817.4000	72.0639
817.3000	71.9423
817.2000	71.8174
817.1000	71.6986
817.0000	71.5806
816.9000	71.468
816.8000	71.3526
816.7000	71.2405
816.6000	71.1351
816.5000	71.0284
816.4000	70.9245
816.3000	70.8257
816.2000	70.7254
816.1000	70.634
816.0000	70.5425
815.9000	70.4506
815.8000	70.3651
815.7000	70.2805
815.6000	70.2006
815.5000	70.1212
815.4000	70.0435
815.3000	69.9666
815.2000	69.8991
815.1000	69.8287
815.0000	69.7661
814.9000	69.7073
814.8000	69.6529
814.7000	69.6038
814.6000	69.5535
814.5000	69.5086
814.4000	69.4627
814.3000	69.4223
814.2000	69.3843
814.1000	69.3477
814.0000	69.3208
813.9000	69.2901
813.8000	69.263
813.7000	69.2399
813.6000	69.2213
813.5000	69.2079
813.4000	69.1955
813.3000	69.1867
813.2000	69.1853
813.1000	69.1871
813.0000	69.1894
812.9000	69.1986
812.8000	69.209
812.7000	69.2252
812.6000	69.2368
812.5000	69.2538
812.4000	69.2775
812.3000	69.2985
812.2000	69.3313
812.1000	69.3634
812.0000	69.4002
811.9000	69.4408
811.8000	69.4779
811.7000	69.5149
811.6000	69.5667
811.5000	69.6156
811.4000	69.6671
811.3000	69.7271
811.2000	69.7899
811.1000	69.8517
811.0000	69.917
810.9000	69.9885
810.8000	70.0609
810.7000	70.1412
810.6000	70.2224
810.5000	70.3028
810.4000	70.3871
810.3000	70.4715
810.2000	70.5585
810.1000	70.6546
810.0000	70.7475
809.9000	70.8444
809.8000	70.9428
809.7000	71.0399
809.6000	71.1448
809.5000	71.2561
809.4000	71.3707
809.3000	71.4836
809.2000	71.6008
809.1000	71.717
809.0000	71.8352
808.9000	71.9571
808.8000	72.0753
808.7000	72.2001
808.6000	72.3325
808.5000	72.4678
808.4000	72.5913
808.3000	72.72
808.2000	72.8596
808.1000	72.9892
808.0000	73.1232
807.9000	73.26
807.8000	73.4038
807.7000	73.5433
807.6000	73.678
807.5000	73.8117
807.4000	73.9525
807.3000	74.0998
807.2000	74.2427
807.1000	74.3879
807.0000	74.537
806.9000	74.6768
806.8000	74.8234
806.7000	74.9627
806.6000	75.1096
806.5000	75.2607
806.4000	75.4013
806.3000	75.5401
806.2000	75.6795
806.1000	75.8222
806.0000	75.9602
805.9000	76.1054
805.8000	76.2415
805.7000	76.3788
805.6000	76.5172
805.5000	76.6523
805.4000	76.7895
805.3000	76.9157
805.2000	77.0527
805.1000	77.1803
805.0000	77.3031
804.9000	77.429
804.8000	77.5489
804.7000	77.6718
804.6000	77.787
804.5000	77.9081
804.4000	78.0299
804.3000	78.1442
804.2000	78.2595
804.1000	78.3637
804.0000	78.4675
803.9000	78.5726
803.8000	78.669
803.7000	78.77
803.6000	78.8602
803.5000	78.9499
803.4000	79.0361
803.3000	79.1159
803.2000	79.1952
803.1000	79.267
803.0000	79.3438
802.9000	79.4121
802.8000	79.4794
802.7000	79.5405
802.6000	79.5949
802.5000	79.6455
802.4000	79.6998
802.3000	79.7479
802.2000	79.7876
802.1000	79.8284
802.0000	79.8599
801.9000	79.8936
801.8000	79.9207
801.7000	79.9446
801.6000	79.9635
801.5000	79.9769
801.4000	79.9841
801.3000	79.9912
801.2000	79.9905
801.1000	79.9911
801.0000	79.98
800.9000	79.9682
800.8000	79.9547
800.7000	79.9323
800.6000	79.9109
800.5000	79.874
800.4000	79.845
800.3000	79.8115
800.2000	79.7736
800.1000	79.7319
800.0000	79.6845
799.9000	79.6381
799.8000	79.5771
799.7000	79.5145
799.6000	79.4528
799.5000	79.3798
799.4000	79.3115
799.3000	79.2392
799.2000	79.1596
799.1000	79.0808
799.0000	78.9955
798.9000	78.9045
798.8000	78.8092
798.7000	78.7101
798.6000	78.6094
798.5000	78.5081
798.4000	78.4066
798.3000	78.2952
798.2000	78.1951
798.1000	78.0766
798.0000	77.9616
797.9000	77.8368
797.8000	77.7187
797.7000	77.5977
797.6000	77.4702
797.5000	77.344
797.4000	77.2076
797.3000	77.0843
797.2000	76.9461
797.1000	76.8072
797.0000	76.665
796.9000	76.5218
796.8000	76.3805
796.7000	76.2358
796.6000	76.095
796.5000	75.9511
796.4000	75.8018
796.3000	75.6599
796.2000	75.516
796.1000	75.3684
796.0000	75.2215
795.9000	75.0717
795.8000	74.9231
795.7000	74.7783
795.6000	74.631
795.5000	74.4811
795.4000	74.3334
795.3000	74.1886
795.2000	74.0395
795.1000	73.8906
795.0000	73.7333
794.9000	73.5873
794.8000	73.4395
794.7000	73.2992
794.6000	73.1524
794.5000	73.0087
794.4000	72.8687
794.3000	72.7276
794.2000	72.591
794.1000	72.4503
794.0000	72.3188
793.9000	72.1906
793.8000	72.0626
793.7000	71.9394
793.6000	71.8156
793.5000	71.6921
793.4000	71.5712
793.3000	71.4547
793.2000	71.3359
793.1000	71.2184
793.0000	71.1028
792.9000	70.9956
792.8000	70.8856
792.7000	70.7774
792.6000	70.6773
792.5000	70.5774
792.4000	70.4826
792.3000	70.3923
792.2000	70.3034
792.1000	70.2138
792.0000	70.1306
791.9000	70.0544
791.8000	69.982
791.7000	69.9079
791.6000	69.8398
791.5000	69.7733
791.4000	69.7105
791.3000	69.6515
791.2000	69.593
791.1000	69.5405
791.0000	69.4926
790.9000	69.4445
790.8000	69.4036
790.7000	69.3616
790.6000	69.3274
790.5000	69.2923
790.4000	69.2639
790.3000	69.238
790.2000	69.2162
790.1000	69.1984
790.0000	69.1868
789.9000	69.1829
789.8000	69.1801
789.7000	69.1767
789.6000	69.1834
789.5000	69.187
789.4000	69.1925
789.3000	69.2076
789.2000	69.2267
789.1000	69.2511
789.0000	69.2735
788.9000	69.3009
788.8000	69.3354
788.7000	69.3704
788.6000	69.4115
788.5000	69.4559
788.4000	69.5017
788.3000	69.557
788.2000	69.6134
788.1000	69.6721
788.0000	69.7378
787.9000	69.8003
787.8000	69.8718
787.7000	69.9464
787.6000	70.0202
787.5000	70.1018
787.4000	70.185
787.3000	70.273
787.2000	70.3621
787.1000	70.4523
787.0000	70.5483
786.9000	70.6457
786.8000	70.7462
786.7000	70.8477
786.6000	70.9542
786.5000	71.0598
786.4000	71.1681
786.3000	71.2861
786.2000	71.4079
786.1000	71.5232
786.0000	71.6453
785.9000	71.7695
785.8000	71.895
785.7000	72.0242
785.6000	72.1514
785.5000	72.2868
785.4000	72.4204
785.3000	72.5535
785.2000	72.6897
785.1000	72.8202
785.0000	72.9599
784.9000	73.0976
784.8000	73.2381
784.7000	73.3868
784.6000	73.5279
784.5000	73.6733
784.4000	73.8135
784.3000	73.9581
784.2000	74.0975
784.1000	74.2454
784.0000	74.3957
783.9000	74.5414
783.8000	74.6877
783.7000	74.8386
783.6000	74.9891
783.5000	75.1337
783.4000	75.279
783.3000	75.4322
783.2000	75.5806
783.1000	75.7253
783.0000	75.8678
782.9000	76.0151
782.8000	76.1575
782.7000	76.2972
782.6000	76.4422
782.5000	76.5794
782.4000	76.7175
782.3000	76.8506
782.2000	76.9856
782.1000	77.1198
782.0000	77.2504
781.9000	77.3804
781.8000	77.5086
781.7000	77.6341
781.6000	77.7567
781.5000	77.8697
781.4000	77.9885
781.3000	78.0995
781.2000	78.2162
781.1000	78.3271
781.0000	78.4347
780.9000	78.5315
780.8000	78.6274
780.7000	78.7263
780.6000	78.8209
780.5000	78.9051
780.4000	78.9939
780.3000	79.0736
780.2000	79.1521
780.1000	79.2228
780.0000	79.2878
779.9000	79.3574
779.8000	79.4208
779.7000	79.4822
779.6000	79.5369
779.5000	79.589
779.4000	79.6348
779.3000	79.678
779.2000	79.7177
779.1000	79.7499
779.0000	79.7732
778.9000	79.795
778.8000	79.8144
778.7000	79.8278
778.6000	79.8329
778.5000	79.8404
778.4000	79.8442
778.3000	79.8409
778.2000	79.8274
778.1000	79.8158
778.0000	79.7977
777.9000	79.7759
777.8000	79.7534
777.7000	79.724
777.6000	79.6904
777.5000	79.6478
777.4000	79.602
777.3000	79.5573
777.2000	79.4977
777.1000	79.4406
777.0000	79.3814
776.9000	79.3199
776.8000	79.2546
776.7000	79.1798
776.6000	79.1015
776.5000	79.0206
776.4000	78.937
776.3000	78.8484
776.2000	78.7564
776.1000	78.6617
776.0000	78.5586
775.9000	78.4646
775.8000	78.3592
775.7000	78.2519
775.6000	78.1432
775.5000	78.0296
775.4000	77.9162
775.3000	77.7966
775.2000	77.6717
775.1000	77.5491
775.0000	77.4246
774.9000	77.2958
774.8000	77.1644
774.7000	77.0312
774.6000	76.8966
774.5000	76.7622
774.4000	76.6204
774.3000	76.4853
774.2000	76.345
774.1000	76.2015
774.0000	76.0613
773.9000	75.9206
773.8000	75.7748
773.7000	75.6267
773.6000	75.4786
773.5000	75.3307
773.4000	75.182
773.3000	75.0281
773.2000	74.8775
773.1000	74.7278
773.0000	74.5794
772.9000	74.4322
772.8000	74.2855
772.7000	74.1328
772.6000	73.986
772.5000	73.8391
772.4000	73.6923
772.3000	73.5483
772.2000	73.4028
772.1000	73.2614
772.0000	73.1173
771.9000	72.9802
771.8000	72.8447
771.7000	72.7051
771.6000	72.5711
771.5000	72.4382
771.4000	72.3077
771.3000	72.175
771.2000	72.0524
771.1000	71.9292
771.0000	71.8075
770.9000	71.6904
770.8000	71.5705
770.7000	71.453
770.6000	71.3416
770.5000	71.227
770.4000	71.1215
770.3000	71.0194
770.2000	70.9189
770.1000	70.8224
770.0000	70.7286
769.9000	70.6365
769.8000	70.5445
769.7000	70.4613
769.6000	70.3817
769.5000	70.2993
769.4000	70.2252
769.3000	70.1547
769.2000	70.0875
769.1000	70.0257
769.0000	69.9647
768.9000	69.9085
768.8000	69.8614
768.7000	69.8132
768.6000	69.7692
768.5000	69.7333
768.4000	69.6973
768.3000	69.6638
768.2000	69.6347
768.1000	69.614
768.0000	69.5901
767.9000	69.5732
767.8000	69.5625
767.7000	69.5542
767.6000	69.552
767.5000	69.5567
767.4000	69.5637
767.3000	69.5793
767.2000	69.592
767.1000	69.6071
767.0000	69.6273
766.9000	69.6516
766.8000	69.6811
766.7000	69.7149
766.6000	69.7549
766.5000	69.7938
766.4000	69.8375
766.3000	69.8877
766.2000	69.9436
766.1000	70.0018
766.0000	70.0647
765.9000	70.127
765.8000	70.1968
765.7000	70.2681
765.6000	70.3425
765.5000	70.4208
765.4000	70.5062
765.3000	70.5908
765.2000	70.6835
765.1000	70.7776
765.0000	70.8749
764.9000	70.976
764.8000	71.082
764.7000	71.1871
764.6000	71.2964
764.5000	71.4046
764.4000	71.5209
764.3000	71.6379
764.2000	71.7599
764.1000	71.8823
764.0000	72.0093
763.9000	72.1395
763.8000	72.2726
763.7000	72.411
763.6000	72.5485
763.5000	72.6846
763.4000	72.8288
763.3000	72.971
763.2000	73.1189
763.1000	73.2668
763.0000	73.4142
762.9000	73.5627
762.8000	73.7118
762.7000	73.8662
762.6000	74.0184
762.5000	74.1696
762.4000	74.3215
762.3000	74.4789
762.2000	74.6296
762.1000	74.786
762.0000	74.9396
761.9000	75.097
761.8000	75.2526
761.7000	75.4048
761.6000	75.553
761.5000	75.7063
761.4000	75.8544
761.3000	76.0071
761.2000	76.1599
761.1000	76.3092
761.0000	76.4544
760.9000	76.6007
760.8000	76.7458
760.7000	76.8867
760.6000	77.0289
760.5000	77.1659
760.4000	77.3035
760.3000	77.4424
760.2000	77.5715
760.1000	77.7
760.0000	77.8276
759.9000	77.9549
759.8000	78.0757
759.7000	78.1915
759.6000	78.3074
759.5000	78.4189
759.4000	78.5297
759.3000	78.6376
759.2000	78.7424
759.1000	78.8377
759.0000	78.9363
758.9000	79.0323
758.8000	79.1227
758.7000	79.205
758.6000	79.2822
758.5000	79.3617
758.4000	79.4407
758.3000	79.5095
758.2000	79.5787
758.1000	79.6362
758.0000	79.6903
757.9000	79.7421
757.8000	79.7893
757.7000	79.8321
757.6000	79.871
757.5000	79.9043
757.4000	79.9292
757.3000	79.9486
757.2000	79.965
757.1000	79.9772
757.0000	79.9852
756.9000	79.9921
756.8000	79.9875
756.7000	79.9778
756.6000	79.9642
756.5000	79.951
756.4000	79.9293
756.3000	79.902
756.2000	79.8716
756.1000	79.8371
756.0000	79.7964
755.9000	79.7509
755.8000	79.7027
755.7000	79.6451
755.6000	79.5853
755.5000	79.522
755.4000	79.4574
755.3000	79.3816
755.2000	79.3003
755.1000	79.2173
755.0000	79.1305
754.9000	79.0431
754.8000	78.9491
754.7000	78.8535
754.6000	78.7514
754.5000	78.6449
754.4000	78.5336
754.3000	78.4217
754.2000	78.3111
754.1000	78.1981
754.0000	78.0772
753.9000	77.953
753.8000	77.828
753.7000	77.6975
753.6000	77.5691
753.5000	77.4371
753.4000	77.3038
753.3000	77.1672
753.2000	77.0317
753.1000	76.8925
753.0000	76.7505
752.9000	76.6034
752.8000	76.4591
752.7000	76.3148
752.6000	76.1647
752.5000	76.0163
752.4000	75.866
752.3000	75.7171
752.2000	75.5645
752.1000	75.4123
752.0000	75.2633
751.9000	75.1126
751.8000	74.9611
751.7000	74.8152
751.6000	74.6678
751.5000	74.5185
751.4000	74.3711
751.3000	74.224
751.2000	74.0771
751.1000	73.9331
751.0000	73.7867
750.9000	73.6458
750.8000	73.5048
750.7000	73.3655
750.6000	73.2266
750.5000	73.091
750.4000	72.9575
750.3000	72.8262
750.2000	72.6956
750.1000	72.5692
750.0000	72.442
749.9000	72.3194
749.8000	72.1997
749.7000	72.0856
749.6000	71.9709
749.5000	71.8594
749.4000	71.7533
749.3000	71.6482
749.2000	71.5493
749.1000	71.4529
749.0000	71.3582
748.9000	71.273
748.8000	71.1886
748.7000	71.1086
748.6000	71.0281
748.5000	70.9501
748.4000	70.8764
748.3000	70.8111
748.2000	70.7448
748.1000	70.6887
748.0000	70.6381
747.9000	70.5878
747.8000	70.5466
747.7000	70.5039
747.6000	70.4699
747.5000	70.4407
747.4000	70.4135
747.3000	70.3948
747.2000	70.3758
747.1000	70.3596
747.0000	70.3524
746.9000	70.3422
746.8000	70.3427
746.7000	70.3493
746.6000	70.3562
746.5000	70.3685
746.4000	70.3855
746.3000	70.4093
746.2000	70.4322
746.1000	70.4673
746.0000	70.5007
745.9000	70.537
745.8000	70.5872
745.7000	70.6352
745.6000	70.6894
745.5000	70.7471
745.4000	70.8105
745.3000	70.8795
745.2000	70.952
745.1000	71.0208
745.0000	71.0984
744.9000	71.1795
744.8000	71.2635
744.7000	71.3567
744.6000	71.4453
744.5000	71.5381
744.4000	71.6354
744.3000	71.7384
744.2000	71.8482
744.1000	71.9581
744.0000	72.0716
743.9000	72.1912
743.8000	72.3107
743.7000	72.4412
743.6000	72.5666
743.5000	72.6934
743.4000	72.8282
743.3000	72.9645
743.2000	73.1024
743.1000	73.2429
743.0000	73.3838
742.9000	73.5219
742.8000	73.6695
742.7000	73.8196
742.6000	73.9655
742.5000	74.1156
742.4000	74.268
742.3000	74.4226
742.2000	74.5788
742.1000	74.7352
742.0000	74.889
741.9000	75.0499
741.8000	75.2098
741.7000	75.3688
741.6000	75.5265
741.5000	75.6824
741.4000	75.8428
741.3000	76.0011
741.2000	76.1556
741.1000	76.3137
741.0000	76.4686
740.9000	76.622
740.8000	76.7745
740.7000	76.928
740.6000	77.0802
740.5000	77.2263
740.4000	77.371
740.3000	77.5156
740.2000	77.6591
740.1000	77.7953
740.0000	77.9102
739.9000	78.044
739.8000	78.1743
739.7000	78.3017
739.6000	78.4306
739.5000	78.552
739.4000	78.6731
739.3000	78.7927
739.2000	78.9074
739.1000	79.0173
739.0000	79.1232
738.9000	79.2275
738.8000	79.3301
738.7000	79.4217
738.6000	79.5119
738.5000	79.5993
738.4000	79.6808
738.3000	79.7594
738.2000	79.8306
738.1000	79.902
738.0000	79.966
737.9000	80.0268
737.8000	80.0848
737.7000	80.1367
737.6000	80.1808
737.5000	80.2215
737.4000	80.2554
737.3000	80.2828
737.2000	80.3095
737.1000	80.3328
737.0000	80.3442
736.9000	80.3522
736.8000	80.3531
736.7000	80.3549
736.6000	80.3545
736.5000	80.3455
736.4000	80.3279
736.3000	80.3054
736.2000	80.2816
736.1000	80.2469
736.0000	80.2092
735.9000	80.1663
735.8000	80.1207
735.7000	80.0725
735.6000	80.0175
735.5000	79.9593
735.4000	79.8965
735.3000	79.8243
735.2000	79.7501
735.1000	79.6719
735.0000	79.5852
734.9000	79.4943
734.8000	79.4049
734.7000	79.3049
734.6000	79.2032
734.5000	79.0991
734.4000	78.9937
734.3000	78.883
734.2000	78.7687
734.1000	78.6543
734.0000	78.5309
733.9000	78.404
733.8000	78.2815
733.7000	78.1513
733.6000	78.0226
733.5000	77.8868
733.4000	77.7522
733.3000	77.6144
733.2000	77.4771
733.1000	77.3403
733.0000	77.1985
732.9000	77.0601
732.8000	76.9154
732.7000	76.7668
732.6000	76.6205
732.5000	76.4722
732.4000	76.3236
732.3000	76.1768
732.2000	76.0295
732.1000	75.8828
732.0000	75.7346
731.9000	75.5872
731.8000	75.4419
731.7000	75.2991
731.6000	75.1529
731.5000	75.0125
731.4000	74.8706
731.3000	74.7296
731.2000	74.5885
731.1000	74.4511
731.0000	74.3179
730.9000	74.1826
730.8000	74.0507
730.7000	73.9193
730.6000	73.7891
730.5000	73.6638
730.4000	73.5374
730.3000	73.4161
730.2000	73.2957
730.1000	73.1786
730.0000	73.0644
729.9000	72.9511
729.8000	72.8421
729.7000	72.7323
729.6000	72.6295
729.5000	72.5351
729.4000	72.4397
729.3000	72.348
729.2000	72.2623
729.1000	72.1776
729.0000	72.0964
728.9000	72.022
728.8000	71.9529
728.7000	71.8856
728.6000	71.8234
728.5000	71.7617
728.4000	71.7082
728.3000	71.6547
728.2000	71.6066
728.1000	71.5641
728.0000	71.5273
727.9000	71.4923
727.8000	71.4611
727.7000	71.4361
727.6000	71.4175
727.5000	71.4032
727.4000	71.3905
727.3000	71.3875
727.2000	71.39
727.1000	71.3947
727.0000	71.4028
726.9000	71.4191
726.8000	71.4379
726.7000	71.459
726.6000	71.4891
726.5000	71.5218
726.4000	71.5625
726.3000	71.6033
726.2000	71.6512
726.1000	71.7024
726.0000	71.7565
725.9000	71.8182
725.8000	71.8856
725.7000	71.9555
725.6000	72.0298
725.5000	72.1083
725.4000	72.189
725.3000	72.277
725.2000	72.366
725.1000	72.4619
725.0000	72.5608
724.9000	72.6609
724.8000	72.766
724.7000	72.8798
724.6000	72.9923
724.5000	73.1128
724.4000	73.2339
724.3000	73.3602
724.2000	73.4898
724.1000	73.617
724.0000	73.7455
723.9000	73.8823
723.8000	74.0192
723.7000	74.1599
723.6000	74.3046
723.5000	74.4517
723.4000	74.5979
723.3000	74.7475
723.2000	74.899
723.1000	75.0527
723.0000	75.2047
722.9000	75.361
722.8000	75.5144
722.7000	75.6673
722.6000	75.8209
722.5000	75.9762
722.4000	76.1293
722.3000	76.289
722.2000	76.4481
722.1000	76.6063
722.0000	76.7639
721.9000	76.9217
721.8000	77.0757
721.7000	77.2308
721.6000	77.3822
721.5000	77.5329
721.4000	77.6851
721.3000	77.8347
721.2000	77.9811
721.1000	78.125
721.0000	78.2688
720.9000	78.4083
720.8000	78.5485
720.7000	78.6846
720.6000	78.8177
720.5000	78.9455
720.4000	79.0708
720.3000	79.1944
720.2000	79.3117
720.1000	79.4272
720.0000	79.5348
719.9000	79.6434
719.8000	79.7478
719.7000	79.8469
719.6000	79.9487
719.5000	80.0447
719.4000	80.1354
719.3000	80.2202
719.2000	80.3015
719.1000	80.3749
719.0000	80.4425
718.9000	80.5079
718.8000	80.5681
718.7000	80.6234
718.6000	80.6735
718.5000	80.7216
718.4000	80.762
718.3000	80.7947
718.2000	80.8239
718.1000	80.8477
718.0000	80.8663
717.9000	80.8758
717.8000	80.8864
717.7000	80.8933
717.6000	80.8873
717.5000	80.8749
717.4000	80.8625
717.3000	80.8441
717.2000	80.8175
717.1000	80.791
717.0000	80.7582
716.9000	80.723
716.8000	80.6807
716.7000	80.633
716.6000	80.5803
716.5000	80.5216
716.4000	80.4558
716.3000	80.3896
716.2000	80.3144
716.1000	80.2363
716.0000	80.1571
715.9000	80.0706
715.8000	79.9805
715.7000	79.8838
715.6000	79.7851
715.5000	79.6803
715.4000	79.5752
715.3000	79.4631
715.2000	79.3511
715.1000	79.2346
715.0000	79.1135
714.9000	78.9896
714.8000	78.8591
714.7000	78.7309
714.6000	78.597
714.5000	78.4598
714.4000	78.328
714.3000	78.1914
714.2000	78.0491
714.1000	77.9048
714.0000	77.765
713.9000	77.6173
713.8000	77.4683
713.7000	77.3168
713.6000	77.1686
713.5000	77.0193
713.4000	76.87
713.3000	76.7192
713.2000	76.5673
713.1000	76.4133
713.0000	76.2621
712.9000	76.1131
712.8000	75.9623
712.7000	75.8131
712.6000	75.6654
712.5000	75.5182
712.4000	75.3743
712.3000	75.2293
712.2000	75.0881
712.1000	74.9494
712.0000	74.812
711.9000	74.6765
711.8000	74.5425
711.7000	74.4108
711.6000	74.2859
711.5000	74.1611
711.4000	74.0396
711.3000	73.9205
711.2000	73.8028
711.1000	73.688
711.0000	73.5805
710.9000	73.4784
710.8000	73.3744
710.7000	73.2789
710.6000	73.1873
710.5000	73.1005
710.4000	73.0124
710.3000	72.9334
710.2000	72.8558
710.1000	72.7848
710.0000	72.7198
709.9000	72.6598
709.8000	72.6012
709.7000	72.5461
709.6000	72.4977
709.5000	72.4584
709.4000	72.422
709.3000	72.3895
709.2000	72.3601
709.1000	72.3384
709.0000	72.3194
708.9000	72.3047
708.8000	72.2953
708.7000	72.2961
708.6000	72.2981
708.5000	72.3055
708.4000	72.3197
708.3000	72.3369
708.2000	72.3594
708.1000	72.39
708.0000	72.426
707.9000	72.4659
707.8000	72.5085
707.7000	72.5559
707.6000	72.6099
707.5000	72.6637
707.4000	72.7236
707.3000	72.7896
707.2000	72.8652
707.1000	72.9404
707.0000	73.0189
706.9000	73.1012
706.8000	73.1886
706.7000	73.2793
706.6000	73.3776
706.5000	73.4794
706.4000	73.5806
706.3000	73.6832
706.2000	73.7923
706.1000	73.906
706.0000	74.0233
705.9000	74.1428
705.8000	74.2677
705.7000	74.3972
705.6000	74.5302
705.5000	74.6577
705.4000	74.7937
705.3000	74.9306
705.2000	75.0664
705.1000	75.2086
705.0000	75.3495
704.9000	75.4901
704.8000	75.634
704.7000	75.7828
704.6000	75.929
704.5000	76.0782
704.4000	76.2265
704.3000	76.3806
704.2000	76.5331
704.1000	76.6823
704.0000	76.8312
703.9000	76.9798
703.8000	77.1283
703.7000	77.2822
703.6000	77.4299
703.5000	77.5775
703.4000	77.7239
703.3000	77.8672
703.2000	78.0147
703.1000	78.1569
703.0000	78.2972
702.9000	78.4341
702.8000	78.5684
702.7000	78.7031
702.6000	78.8326
702.5000	78.9555
702.4000	79.0741
702.3000	79.1966
702.2000	79.3136
702.1000	79.4273
702.0000	79.5362
701.9000	79.6428
701.8000	79.7434
701.7000	79.8411
701.6000	79.9322
701.5000	80.021
701.4000	80.1066
701.3000	80.1784
701.2000	80.2496
701.1000	80.3146
701.0000	80.3765
700.9000	80.4355
700.8000	80.4879
700.7000	80.5346
700.6000	80.5818
700.5000	80.6147
700.4000	80.6453
700.3000	80.6699
700.2000	80.688
700.1000	80.7046
700.0000	80.7108
699.9000	80.7132
699.8000	80.7104
699.7000	80.7037
699.6000	80.6881
699.5000	80.6709
699.4000	80.6472
699.3000	80.6227
699.2000	80.5902
699.1000	80.5471
699.0000	80.5023
698.9000	80.4523
698.8000	80.4017
698.7000	80.3393
698.6000	80.2758
698.5000	80.2082
698.4000	80.1367
698.3000	80.0565
698.2000	79.9722
698.1000	79.8932
698.0000	79.8058
697.9000	79.7163
697.8000	79.6243
697.7000	79.5244
697.6000	79.4238
697.5000	79.3159
697.4000	79.2058
697.3000	79.0955
697.2000	78.9808
697.1000	78.8641
697.0000	78.747
696.9000	78.6254
696.8000	78.5053
696.7000	78.3848
696.6000	78.2604
696.5000	78.1338
696.4000	78.0093
696.3000	77.8789
696.2000	77.7529
696.1000	77.6208
696.0000	77.492
695.9000	77.3666
695.8000	77.2411
695.7000	77.1105
695.6000	76.9794
695.5000	76.8546
695.4000	76.7298
695.3000	76.607
695.2000	76.4828
695.1000	76.3635
695.0000	76.2449
694.9000	76.1245
694.8000	76.0079
694.7000	75.8917
694.6000	75.7768
694.5000	75.6681
694.4000	75.5604
694.3000	75.4602
694.2000	75.3603
694.1000	75.2616
694.0000	75.1691
693.9000	75.078
693.8000	74.9888
693.7000	74.9034
693.6000	74.8246
693.5000	74.7466
693.4000	74.6778
693.3000	74.608
693.2000	74.5437
693.1000	74.4831
693.0000	74.4291
692.9000	74.3812
692.8000	74.3375
692.7000	74.2951
692.6000	74.2573
692.5000	74.2214
692.4000	74.1978
692.3000	74.1749
692.2000	74.1551
692.1000	74.1421
692.0000	74.1361
691.9000	74.1347
691.8000	74.1383
691.7000	74.1464
691.6000	74.1608
691.5000	74.1803
691.4000	74.2068
691.3000	74.2322
691.2000	74.2656
691.1000	74.3032
691.0000	74.3475
690.9000	74.3968
690.8000	74.4488
690.7000	74.5082
690.6000	74.5751
690.5000	74.6491
690.4000	74.7213
690.3000	74.7988
690.2000	74.8784
690.1000	74.9705
690.0000	75.064
689.9000	75.1629
689.8000	75.2607
689.7000	75.3653
689.6000	75.4735
689.5000	75.5879
689.4000	75.7057
689.3000	75.832
689.2000	75.9546
689.1000	76.0817
689.0000	76.2152
688.9000	76.3492
688.8000	76.4869
688.7000	76.6256
688.6000	76.7698
688.5000	76.9212
688.4000	77.0697
688.3000	77.2198
688.2000	77.3684
688.1000	77.5297
688.0000	77.6887
687.9000	77.85
687.8000	78.0073
687.7000	78.1728
687.6000	78.3379
687.5000	78.5035
687.4000	78.6664
687.3000	78.8326
687.2000	78.997
687.1000	79.1646
687.0000	79.3299
686.9000	79.4961
686.8000	79.6604
686.7000	79.8256
686.6000	79.9865
686.5000	80.1511
686.4000	80.3125
686.3000	80.4704
686.2000	80.6273
686.1000	80.7877
686.0000	80.9433
685.9000	81.1001
685.8000	81.2484
685.7000	81.3976
685.6000	81.5429
685.5000	81.6886
685.4000	81.8257
685.3000	81.9573
685.2000	82.085
685.1000	82.2129
685.0000	82.3369
684.9000	82.4551
684.8000	82.5691
684.7000	82.6793
684.6000	82.7853
684.5000	82.8839
684.4000	82.981
684.3000	83.0713
684.2000	83.1575
684.1000	83.2385
684.0000	83.3144
683.9000	83.3869
683.8000	83.4519
683.7000	83.5134
683.6000	83.5647
683.5000	83.6131
683.4000	83.6585
683.3000	83.6906
683.2000	83.7213
683.1000	83.746
683.0000	83.7635
682.9000	83.7736
682.8000	83.7769
682.7000	83.7742
682.6000	83.7695
682.5000	83.7578
682.4000	83.7361
682.3000	83.7057
682.2000	83.6757
682.1000	83.6374
682.0000	83.5954
681.9000	83.5454
681.8000	83.4857
681.7000	83.4219
681.6000	83.351
681.5000	83.2734
681.4000	83.193
681.3000	83.1072
681.2000	83.013
681.1000	82.9187
681.0000	82.8118
680.9000	82.6988
680.8000	82.5855
680.7000	82.4621
680.6000	82.3368
680.5000	82.2019
680.4000	82.0713
680.3000	81.9285
680.2000	81.7826
680.1000	81.6364
680.0000	81.4835
679.9000	81.3289
679.8000	81.169
679.7000	81.0046
679.6000	80.8412
679.5000	80.6752
679.4000	80.5037
679.3000	80.3283
679.2000	80.1543
679.1000	79.9778
679.0000	79.7993
678.9000	79.6226
678.8000	79.4437
678.7000	79.2647
678.6000	79.0893
678.5000	78.913
678.4000	78.7365
678.3000	78.5636
678.2000	78.3905
678.1000	78.2204
678.0000	78.0479
677.9000	77.8782
677.8000	77.7192
677.7000	77.5596
677.6000	77.4006
677.5000	77.2506
677.4000	77.1044
677.3000	76.9602
677.2000	76.8191
677.1000	76.6852
677.0000	76.5555
676.9000	76.4304
676.8000	76.3098
676.7000	76.1942
676.6000	76.0856
676.5000	75.9848
676.4000	75.8864
676.3000	75.7941
676.2000	75.7104
676.1000	75.6311
676.0000	75.5603
675.9000	75.4962
675.8000	75.4358
675.7000	75.381
675.6000	75.3352
675.5000	75.2937
675.4000	75.26
675.3000	75.2296
675.2000	75.2064
675.1000	75.1891
675.0000	75.1805
674.9000	75.172
674.8000	75.1789
674.7000	75.1862
674.6000	75.1967
674.5000	75.2173
674.4000	75.2428
674.3000	75.2731
674.2000	75.3075
674.1000	75.3506
674.0000	75.3998
673.9000	75.4544
673.8000	75.5081
673.7000	75.57
673.6000	75.6386
673.5000	75.7128
673.4000	75.7892
673.3000	75.8709
673.2000	75.9601
673.1000	76.0508
673.0000	76.1464
672.9000	76.2456
672.8000	76.3481
672.7000	76.4551
672.6000	76.5669
672.5000	76.6851
672.4000	76.8025
672.3000	76.9267
672.2000	77.0512
672.1000	77.181
672.0000	77.3128
671.9000	77.4479
671.8000	77.5816
671.7000	77.7209
671.6000	77.8609
671.5000	78.0031
671.4000	78.1479
671.3000	78.288
671.2000	78.4333
671.1000	78.5821
671.0000	78.728
670.9000	78.8749
670.8000	79.0177
670.7000	79.162
670.6000	79.3123
670.5000	79.4616
670.4000	79.609
670.3000	79.7533
670.2000	79.8973
670.1000	80.0403
670.0000	80.1808
669.9000	80.3212
669.8000	80.4546
669.7000	80.5901
669.6000	80.7206
669.5000	80.8518
669.4000	80.9796
669.3000	81.1017
669.2000	81.2241
669.1000	81.3374
669.0000	81.4501
668.9000	81.5599
668.8000	81.6655
668.7000	81.7652
668.6000	81.8633
668.5000	81.9584
668.4000	82.0418
668.3000	82.1259
668.2000	82.2052
668.1000	82.2817
668.0000	82.35
667.9000	82.4123
667.8000	82.474
667.7000	82.5308
667.6000	82.5811
667.5000	82.6268
667.4000	82.6636
667.3000	82.6947
667.2000	82.719
667.1000	82.7389
667.0000	82.7558
666.9000	82.7675
666.8000	82.7701
666.7000	82.7638
666.6000	82.7578
666.5000	82.7488
666.4000	82.7304
666.3000	82.7062
666.2000	82.6754
666.1000	82.6367
666.0000	82.5933
665.9000	82.5498
665.8000	82.4956
665.7000	82.4367
665.6000	82.3728
665.5000	82.3064
665.4000	82.2375
665.3000	82.1582
665.2000	82.0775
665.1000	81.9937
665.0000	81.9022
664.9000	81.8078
664.8000	81.7089
664.7000	81.6047
664.6000	81.4971
664.5000	81.3851
664.4000	81.2719
664.3000	81.1536
664.2000	81.031
664.1000	80.9064
664.0000	80.7833
663.9000	80.6566
663.8000	80.5254
663.7000	80.3903
663.6000	80.2552
663.5000	80.1237
663.4000	79.9892
663.3000	79.8445
663.2000	79.7066
663.1000	79.5657
663.0000	79.4231
662.9000	79.2852
662.8000	79.147
662.7000	79.0063
662.6000	78.8733
662.5000	78.7344
662.4000	78.6009
662.3000	78.4655
662.2000	78.3277
662.1000	78.1987
662.0000	78.0722
661.9000	77.9424
661.8000	77.8161
661.7000	77.6966
661.6000	77.5798
661.5000	77.4642
661.4000	77.353
661.3000	77.2419
661.2000	77.1368
661.1000	77.0372
661.0000	76.9447
660.9000	76.8559
660.8000	76.766
660.7000	76.682
660.6000	76.6032
660.5000	76.5275
660.4000	76.4622
660.3000	76.3977
660.2000	76.3389
660.1000	76.2894
660.0000	76.2425
659.9000	76.2017
659.8000	76.1696
659.7000	76.1399
659.6000	76.1167
659.5000	76.1003
659.4000	76.0855
659.3000	76.076
659.2000	76.0775
659.1000	76.0826
659.0000	76.0959
658.9000	76.1093
658.8000	76.1308
658.7000	76.1597
658.6000	76.1955
658.5000	76.2321
658.4000	76.2761
658.3000	76.3274
658.2000	76.3845
658.1000	76.4486
658.0000	76.5166
657.9000	76.5873
657.8000	76.6617
657.7000	76.7378
657.6000	76.824
657.5000	76.9145
657.4000	77.0103
657.3000	77.112
657.2000	77.2129
657.1000	77.3205
657.0000	77.4287
656.9000	77.5393
656.8000	77.6582
656.7000	77.781
656.6000	77.9057
656.5000	78.0301
656.4000	78.1592
656.3000	78.2875
656.2000	78.4195
656.1000	78.5637
656.0000	78.6996
655.9000	78.8392
655.8000	78.9799
655.7000	79.1231
655.6000	79.2653
655.5000	79.4089
655.4000	79.5516
655.3000	79.6935
655.2000	79.8373
655.1000	79.9808
655.0000	80.1236
654.9000	80.2646
654.8000	80.4024
654.7000	80.5379
654.6000	80.6738
654.5000	80.8111
654.4000	80.9439
654.3000	81.0765
654.2000	81.2033
654.1000	81.3286
654.0000	81.4497
653.9000	81.5685
653.8000	81.6849
653.7000	81.7997
653.6000	81.9071
653.5000	82.0081
653.4000	82.1038
653.3000	82.1989
653.2000	82.2862
653.1000	82.3746
653.0000	82.4544
652.9000	82.5261
652.8000	82.5913
652.7000	82.6521
652.6000	82.7092
652.5000	82.7603
652.4000	82.8037
652.3000	82.8418
652.2000	82.8745
652.1000	82.9043
652.0000	82.9264
651.9000	82.9387
651.8000	82.945
651.7000	82.9487
651.6000	82.9442
651.5000	82.9372
651.4000	82.9233
651.3000	82.899
651.2000	82.8707
651.1000	82.8384
651.0000	82.8007
650.9000	82.7543
650.8000	82.7042
650.7000	82.6478
650.6000	82.5861
650.5000	82.5206
650.4000	82.4462
650.3000	82.366
650.2000	82.2787
650.1000	82.1912
650.0000	82.0999
649.9000	82.0044
649.8000	81.9046
649.7000	81.7971
649.6000	81.6882
649.5000	81.5779
649.4000	81.4593
649.3000	81.3396
649.2000	81.2169
649.1000	81.0929
649.0000	80.9682
648.9000	80.8354
648.8000	80.701
648.7000	80.5671
648.6000	80.4349
648.5000	80.2962
648.4000	80.1604
648.3000	80.0213
648.2000	79.8831
648.1000	79.7469
648.0000	79.6072
647.9000	79.4652
647.8000	79.324
647.7000	79.1865
647.6000	79.0493
647.5000	78.9157
647.4000	78.7843
647.3000	78.6516
647.2000	78.52
647.1000	78.3936
647.0000	78.2744
646.9000	78.1531
646.8000	78.033
646.7000	77.9149
646.6000	77.8037
646.5000	77.6967
646.4000	77.5959
646.3000	77.4967
646.2000	77.4025
646.1000	77.3137
646.0000	77.2297
645.9000	77.1488
645.8000	77.0715
645.7000	77.0022
645.6000	76.9373
645.5000	76.8762
645.4000	76.8177
645.3000	76.7686
645.2000	76.7217
645.1000	76.6863
645.0000	76.6551
644.9000	76.6308
644.8000	76.6117
644.7000	76.5984
644.6000	76.5899
644.5000	76.5905
644.4000	76.5943
644.3000	76.6016
644.2000	76.6147
644.1000	76.6342
644.0000	76.6633
643.9000	76.6984
643.8000	76.7361
643.7000	76.7824
643.6000	76.8344
643.5000	76.8902
643.4000	76.9508
643.3000	77.0177
643.2000	77.0906
643.1000	77.1664
643.0000	77.248
642.9000	77.3351
642.8000	77.4289
642.7000	77.524
642.6000	77.6232
642.5000	77.7281
642.4000	77.8368
642.3000	77.9513
642.2000	78.0715
642.1000	78.1911
642.0000	78.3156
641.9000	78.4402
641.8000	78.5658
641.7000	78.6923
641.6000	78.8253
641.5000	78.9604
641.4000	79.097
641.3000	79.2344
641.2000	79.3731
641.1000	79.5149
641.0000	79.6553
640.9000	79.7978
640.8000	79.9394
640.7000	80.0806
640.6000	80.2216
640.5000	80.3571
640.4000	80.493
640.3000	80.627
640.2000	80.7591
640.1000	80.8925
640.0000	81.021
639.9000	81.15
639.8000	81.273
639.7000	81.3926
639.6000	81.5079
639.5000	81.6235
639.4000	81.7352
639.3000	81.8427
639.2000	81.9462
639.1000	82.0465
639.0000	82.1374
638.9000	82.2263
638.8000	82.3092
638.7000	82.3866
638.6000	82.4631
638.5000	82.5359
638.4000	82.5937
638.3000	82.648
638.2000	82.7009
638.1000	82.7438
638.0000	82.7824
637.9000	82.8127
637.8000	82.8401
637.7000	82.8582
637.6000	82.8718
637.5000	82.8764
637.4000	82.8757
637.3000	82.8741
637.2000	82.8637
637.1000	82.8483
637.0000	82.8277
636.9000	82.7993
636.8000	82.7608
636.7000	82.7165
636.6000	82.6699
636.5000	82.6171
636.4000	82.5563
636.3000	82.4901
636.2000	82.4192
636.1000	82.3446
636.0000	82.2614
635.9000	82.1731
635.8000	82.0803
635.7000	81.9828
635.6000	81.8824
635.5000	81.7784
635.4000	81.6678
635.3000	81.552
635.2000	81.4387
635.1000	81.3216
635.0000	81.1979
634.9000	81.0735
634.8000	80.9444
634.7000	80.8127
634.6000	80.6801
634.5000	80.5471
634.4000	80.4124
634.3000	80.2743
634.2000	80.1365
634.1000	79.9965
634.0000	79.8593
633.9000	79.7173
633.8000	79.5777
633.7000	79.4344
633.6000	79.2962
633.5000	79.1588
633.4000	79.0242
633.3000	78.8872
633.2000	78.7557
633.1000	78.626
633.0000	78.4988
632.9000	78.3717
632.8000	78.25
632.7000	78.1292
632.6000	78.0125
632.5000	77.8992
632.4000	77.7902
632.3000	77.6828
632.2000	77.5796
632.1000	77.4839
632.0000	77.3943
631.9000	77.3043
631.8000	77.2192
631.7000	77.1388
631.6000	77.0674
631.5000	77.0008
631.4000	76.9391
631.3000	76.8822
631.2000	76.8308
631.1000	76.7871
631.0000	76.7489
630.9000	76.7143
630.8000	76.6861
630.7000	76.6667
630.6000	76.6524
630.5000	76.6433
630.4000	76.6425
630.3000	76.6442
630.2000	76.6552
630.1000	76.6738
630.0000	76.696
629.9000	76.7231
629.8000	76.7538
629.7000	76.794
629.6000	76.8401
629.5000	76.889
629.4000	76.9467
629.3000	77.0077
629.2000	77.0796
629.1000	77.1533
629.0000	77.2321
628.9000	77.3149
628.8000	77.3987
628.7000	77.4916
628.6000	77.5939
628.5000	77.6975
628.4000	77.8016
628.3000	77.9126
628.2000	78.0264
628.1000	78.1426
628.0000	78.2613
627.9000	78.3854
627.8000	78.5114
627.7000	78.6409
627.6000	78.7686
627.5000	78.8995
627.4000	79.0322
627.3000	79.1645
627.2000	79.2985
627.1000	79.4345
627.0000	79.5679
626.9000	79.7012
626.8000	79.8343
626.7000	79.9702
626.6000	80.1058
626.5000	80.237
626.4000	80.3669
626.3000	80.4972
626.2000	80.6237
626.1000	80.7508
626.0000	80.8711
625.9000	80.9914
625.8000	81.106
625.7000	81.2169
625.6000	81.3269
625.5000	81.4322
625.4000	81.5269
625.3000	81.622
625.2000	81.7132
625.1000	81.7984
625.0000	81.8794
624.9000	81.9563
624.8000	82.0266
624.7000	82.0884
624.6000	82.1474
624.5000	82.1965
624.4000	82.2438
624.3000	82.2849
624.2000	82.3147
624.1000	82.3461
624.0000	82.3662
623.9000	82.383
623.8000	82.3913
623.7000	82.3916
623.6000	82.3871
623.5000	82.3726
623.4000	82.3519
623.3000	82.3249
623.2000	82.2907
623.1000	82.2563
623.0000	82.2101
622.9000	82.1567
622.8000	82.0986
622.7000	82.0338
622.6000	81.9638
622.5000	81.8889
622.4000	81.807
622.3000	81.7185
622.2000	81.6264
622.1000	81.5293
622.0000	81.4305
621.9000	81.3232
621.8000	81.2097
621.7000	81.0908
621.6000	80.9711
621.5000	80.8508
621.4000	80.7221
621.3000	80.5936
621.2000	80.4606
621.1000	80.3246
621.0000	80.1879
620.9000	80.0464
620.8000	79.9045
620.7000	79.7606
620.6000	79.617
620.5000	79.4741
620.4000	79.3295
620.3000	79.1837
620.2000	79.0414
620.1000	78.899
620.0000	78.7571
619.9000	78.6114
619.8000	78.4709
619.7000	78.3342
619.6000	78.1977
619.5000	78.0617
619.4000	77.9307
619.3000	77.7989
619.2000	77.6737
619.1000	77.5513
619.0000	77.4328
618.9000	77.3158
618.8000	77.2014
618.7000	77.0939
618.6000	76.9927
618.5000	76.8963
618.4000	76.8025
618.3000	76.7135
618.2000	76.6332
618.1000	76.5602
618.0000	76.4901
617.9000	76.4243
617.8000	76.3686
617.7000	76.318
617.6000	76.2722
617.5000	76.2315
617.4000	76.1975
617.3000	76.1703
617.2000	76.1507
617.1000	76.1403
617.0000	76.1344
616.9000	76.1357
616.8000	76.1423
616.7000	76.1551
616.6000	76.1746
616.5000	76.1995
616.4000	76.2299
616.3000	76.2685
616.2000	76.3148
616.1000	76.3676
616.0000	76.4251
615.9000	76.4888
615.8000	76.5568
615.7000	76.632
615.6000	76.7118
615.5000	76.7962
615.4000	76.8866
615.3000	76.9832
615.2000	77.0858
615.1000	77.1908
615.0000	77.2977
614.9000	77.4094
614.8000	77.5253
614.7000	77.6468
614.6000	77.7681
614.5000	77.892
614.4000	78.0195
614.3000	78.1485
614.2000	78.2808
614.1000	78.4162
614.0000	78.5486
613.9000	78.6797
613.8000	78.8111
613.7000	78.9449
613.6000	79.0812
613.5000	79.2166
613.4000	79.3524
613.3000	79.4868
613.2000	79.6204
613.1000	79.7542
613.0000	79.8832
612.9000	80.0102
612.8000	80.1328
612.7000	80.2535
612.6000	80.3753
612.5000	80.49
612.4000	80.6002
612.3000	80.7048
612.2000	80.8066
612.1000	80.9015
612.0000	80.9908
611.9000	81.0752
611.8000	81.1571
611.7000	81.2299
611.6000	81.2998
611.5000	81.3618
611.4000	81.4159
611.3000	81.465
611.2000	81.5115
611.1000	81.5529
611.0000	81.5812
610.9000	81.6038
610.8000	81.6229
610.7000	81.6356
610.6000	81.6413
610.5000	81.6361
610.4000	81.6248
610.3000	81.6063
610.2000	81.5778
610.1000	81.5446
610.0000	81.5047
609.9000	81.4552
609.8000	81.3985
609.7000	81.3378
609.6000	81.2719
609.5000	81.1996
609.4000	81.1183
609.3000	81.0314
609.2000	80.9406
609.1000	80.847
609.0000	80.7425
608.9000	80.6387
608.8000	80.5244
608.7000	80.4101
608.6000	80.2916
608.5000	80.1678
608.4000	80.0389
608.3000	79.906
608.2000	79.7725
608.1000	79.6363
608.0000	79.4961
607.9000	79.3523
607.8000	79.2122
607.7000	79.0658
607.6000	78.9193
607.5000	78.7696
607.4000	78.623
607.3000	78.4753
607.2000	78.3296
607.1000	78.1845
607.0000	78.0428
606.9000	77.899
606.8000	77.7568
606.7000	77.6161
606.6000	77.4796
606.5000	77.3447
606.4000	77.2143
606.3000	77.0854
606.2000	76.9621
606.1000	76.8431
606.0000	76.7272
605.9000	76.6106
605.8000	76.5042
605.7000	76.4002
605.6000	76.305
605.5000	76.211
605.4000	76.1218
605.3000	76.0394
605.2000	75.9654
605.1000	75.8985
605.0000	75.8361
604.9000	75.7816
604.8000	75.7296
604.7000	75.6826
604.6000	75.6463
604.5000	75.6176
604.4000	75.595
604.3000	75.5763
604.2000	75.5664
604.1000	75.5655
604.0000	75.5694
603.9000	75.5802
603.8000	75.597
603.7000	75.6214
603.6000	75.6522
603.5000	75.6921
603.4000	75.7383
603.3000	75.7892
603.2000	75.8473
603.1000	75.9085
603.0000	75.976
602.9000	76.0508
602.8000	76.1285
602.7000	76.2164
602.6000	76.3122
602.5000	76.4083
602.4000	76.5093
602.3000	76.6152
602.2000	76.7275
602.1000	76.8422
602.0000	76.9579
601.9000	77.0805
601.8000	77.2026
601.7000	77.327
601.6000	77.4576
601.5000	77.5897
601.4000	77.7172
601.3000	77.8515
601.2000	77.9842
601.1000	78.1236
601.0000	78.2581
600.9000	78.3911
600.8000	78.5267
600.7000	78.6613
600.6000	78.7948
600.5000	78.9296
600.4000	79.0607
600.3000	79.1879
600.2000	79.3129
600.1000	79.4374
600.0000	79.3324
599.9000	79.4437
599.8000	79.5501
599.7000	79.652
599.6000	79.7482
599.5000	79.8434
599.4000	79.9327
599.3000	80.0165
599.2000	80.0937
599.1000	80.1611
599.0000	80.2286
598.9000	80.2852
598.8000	80.3346
598.7000	80.3753
598.6000	80.4135
598.5000	80.4431
598.4000	80.4671
598.3000	80.484
598.2000	80.4906
598.1000	80.4861
598.0000	80.4787
597.9000	80.4672
597.8000	80.4473
597.7000	80.4164
597.6000	80.3781
597.5000	80.3337
597.4000	80.2832
597.3000	80.2207
597.2000	80.1561
597.1000	80.0813
597.0000	79.9991
596.9000	79.9148
596.8000	79.8192
596.7000	79.7233
596.6000	79.621
596.5000	79.5142
596.4000	79.401
596.3000	79.2821
596.2000	79.1558
596.1000	79.0281
596.0000	78.896
595.9000	78.7604
595.8000	78.6189
595.7000	78.475
595.6000	78.3295
595.5000	78.1843
595.4000	78.0328
595.3000	77.8864
595.2000	77.7312
595.1000	77.5792
595.0000	77.4243
594.9000	77.2729
594.8000	77.1199
594.7000	76.9671
594.6000	76.8179
594.5000	76.6685
594.4000	76.5223
594.3000	76.3806
594.2000	76.2343
594.1000	76.0968
594.0000	75.9626
593.9000	75.8342
593.8000	75.708
593.7000	75.5862
593.6000	75.466
593.5000	75.3498
593.4000	75.2427
593.3000	75.1407
593.2000	75.0443
593.1000	74.953
593.0000	74.8708
592.9000	74.7951
592.8000	74.7226
592.7000	74.657
592.6000	74.5998
592.5000	74.5531
592.4000	74.5093
592.3000	74.475
592.2000	74.445
592.1000	74.4246
592.0000	74.4128
591.9000	74.4072
591.8000	74.4123
591.7000	74.4206
591.6000	74.4377
591.5000	74.4609
591.4000	74.4933
591.3000	74.5319
591.2000	74.5768
591.1000	74.625
591.0000	74.6832
590.9000	74.7486
590.8000	74.818
590.7000	74.8952
590.6000	74.9803
590.5000	75.0683
590.4000	75.1651
590.3000	75.2663
590.2000	75.3668
590.1000	75.4736
590.0000	75.5818
589.9000	75.6957
589.8000	75.8132
589.7000	75.9325
589.6000	76.056
589.5000	76.1829
589.4000	76.3097
589.3000	76.4369
589.2000	76.5693
589.1000	76.7004
589.0000	76.8358
588.9000	76.9661
588.8000	77.1005
588.7000	77.232
588.6000	77.3596
588.5000	77.4871
588.4000	77.6111
588.3000	77.7346
588.2000	77.8534
588.1000	77.9723
588.0000	78.087
587.9000	78.1982
587.8000	78.3033
587.7000	78.4043
587.6000	78.5035
587.5000	78.595
587.4000	78.68
587.3000	78.7621
587.2000	78.836
587.1000	78.9027
587.0000	78.9684
586.9000	79.0239
586.8000	79.0761
586.7000	79.1202
586.6000	79.1564
586.5000	79.1868
586.4000	79.211
586.3000	79.2234
586.2000	79.231
586.1000	79.229
586.0000	79.2202
585.9000	79.2006
585.8000	79.1743
585.7000	79.14
585.6000	79.0987
585.5000	79.051
585.4000	78.9957
585.3000	78.937
585.2000	78.8704
585.1000	78.7944
585.0000	78.7148
584.9000	78.6265
584.8000	78.5329
584.7000	78.4313
584.6000	78.3295
584.5000	78.2194
584.4000	78.0986
584.3000	77.9772
584.2000	77.8506
584.1000	77.7186
584.0000	77.5832
583.9000	77.4486
583.8000	77.3073
583.7000	77.166
583.6000	77.0203
583.5000	76.8727
583.4000	76.7214
583.3000	76.5709
583.2000	76.4184
583.1000	76.2699
583.0000	76.119
582.9000	75.9701
582.8000	75.8226
582.7000	75.6768
582.6000	75.5312
582.5000	75.3892
582.4000	75.248
582.3000	75.1102
582.2000	74.9773
582.1000	74.8451
582.0000	74.7184
581.9000	74.5981
581.8000	74.4785
581.7000	74.3643
581.6000	74.2548
581.5000	74.1567
581.4000	74.0597
581.3000	73.9715
581.2000	73.8904
581.1000	73.8148
581.0000	73.7461
580.9000	73.6845
580.8000	73.6317
580.7000	73.5826
580.6000	73.5433
580.5000	73.511
580.4000	73.4848
580.3000	73.4693
580.2000	73.4616
580.1000	73.458
580.0000	73.4656
579.9000	73.4763
579.8000	73.4979
579.7000	73.526
579.6000	73.5622
579.5000	73.6063
579.4000	73.6567
579.3000	73.7145
579.2000	73.7773
579.1000	73.8477
579.0000	73.9233
578.9000	74.0061
578.8000	74.094
578.7000	74.1874
578.6000	74.287
578.5000	74.3907
578.4000	74.4982
578.3000	74.6081
578.2000	74.7241
578.1000	74.8423
578.0000	74.9643
577.9000	75.0869
577.8000	75.2124
577.7000	75.3378
577.6000	75.469
577.5000	75.5987
577.4000	75.7268
577.3000	75.8544
577.2000	75.9851
577.1000	76.1152
577.0000	76.243
576.9000	76.369
576.8000	76.492
576.7000	76.6165
576.6000	76.735
576.5000	76.8518
576.4000	76.963
576.3000	77.074
576.2000	77.1815
576.1000	77.2817
576.0000	77.378
575.9000	77.4676
575.8000	77.5524
575.7000	77.6318
575.6000	77.7051
575.5000	77.7698
575.4000	77.8305
575.3000	77.8861
575.2000	77.9331
575.1000	77.9729
575.0000	78.0056
574.9000	78.0267
574.8000	78.0438
574.7000	78.055
574.6000	78.058
574.5000	78.054
574.4000	78.0357
574.3000	78.0125
574.2000	77.9815
574.1000	77.9476
574.0000	77.9055
573.9000	77.8497
573.8000	77.7894
573.7000	77.7208
573.6000	77.6457
573.5000	77.5648
573.4000	77.479
573.3000	77.3844
573.2000	77.2856
573.1000	77.1744
573.0000	77.0592
572.9000	76.9417
572.8000	76.8191
572.7000	76.6935
572.6000	76.5645
572.5000	76.4305
572.4000	76.2925
572.3000	76.1512
572.2000	76.0048
572.1000	75.8584
572.0000	75.7126
571.9000	75.5626
571.8000	75.4115
571.7000	75.2636
571.6000	75.1135
571.5000	74.964
571.4000	74.8143
571.3000	74.6673
571.2000	74.5257
571.1000	74.3852
571.0000	74.2472
570.9000	74.1074
570.8000	73.9715
570.7000	73.843
570.6000	73.7195
570.5000	73.603
570.4000	73.4903
570.3000	73.3812
570.2000	73.2754
570.1000	73.1814
570.0000	73.0889
569.9000	73.0076
569.8000	72.9299
569.7000	72.8573
569.6000	72.794
569.5000	72.7379
569.4000	72.6867
569.3000	72.6452
569.2000	72.6124
569.1000	72.5866
569.0000	72.5684
568.9000	72.5547
568.8000	72.5483
568.7000	72.5553
568.6000	72.5671
568.5000	72.5881
568.4000	72.6149
568.3000	72.652
568.2000	72.6972
568.1000	72.7472
568.0000	72.8044
567.9000	72.8669
567.8000	72.9389
567.7000	73.0164
567.6000	73.101
567.5000	73.1922
567.4000	73.2867
567.3000	73.3844
567.2000	73.488
567.1000	73.5984
567.0000	73.7107
566.9000	73.822
566.8000	73.9388
566.7000	74.0592
566.6000	74.1829
566.5000	74.3097
566.4000	74.4378
566.3000	74.5647
566.2000	74.6941
566.1000	74.8201
566.0000	74.9479
565.9000	75.0787
565.8000	75.205
565.7000	75.3344
565.6000	75.4615
565.5000	75.5811
565.4000	75.7012
565.3000	75.8167
565.2000	75.9282
565.1000	76.0331
565.0000	76.1361
564.9000	76.2327
564.8000	76.3232
564.7000	76.411
564.6000	76.4895
564.5000	76.5641
564.4000	76.6282
564.3000	76.6852
564.2000	76.7385
564.1000	76.7831
564.0000	76.8217
563.9000	76.8486
563.8000	76.8715
563.7000	76.8879
563.6000	76.8968
563.5000	76.8976
563.4000	76.8894
563.3000	76.8725
563.2000	76.8499
563.1000	76.8194
563.0000	76.78
562.9000	76.7338
562.8000	76.6775
562.7000	76.6137
562.6000	76.5439
562.5000	76.467
562.4000	76.3839
562.3000	76.2942
562.2000	76.1979
562.1000	76.096
562.0000	75.9889
561.9000	75.877
561.8000	75.7587
561.7000	75.6383
561.6000	75.5134
561.5000	75.3845
561.4000	75.2524
561.3000	75.1186
561.2000	74.9827
561.1000	74.8464
561.0000	74.7068
560.9000	74.5703
560.8000	74.427
560.7000	74.287
560.6000	74.1465
560.5000	74.0097
560.4000	73.872
560.3000	73.7369
560.2000	73.6027
560.1000	73.471
560.0000	73.3411
559.9000	73.2164
559.8000	73.0946
559.7000	72.9793
559.6000	72.8689
559.5000	72.7636
559.4000	72.6623
559.3000	72.5648
559.2000	72.4746
559.1000	72.3934
559.0000	72.315
558.9000	72.2479
558.8000	72.1846
558.7000	72.1319
558.6000	72.0853
558.5000	72.0485
558.4000	72.0165
558.3000	71.9942
558.2000	71.9771
558.1000	71.968
558.0000	71.968
557.9000	71.973
557.8000	71.9862
557.7000	72.0054
557.6000	72.0374
557.5000	72.0763
557.4000	72.1239
557.3000	72.174
557.2000	72.2346
557.1000	72.3013
557.0000	72.374
556.9000	72.4556
556.8000	72.5422
556.7000	72.6328
556.6000	72.7311
556.5000	72.8331
556.4000	72.9372
556.3000	73.0461
556.2000	73.162
556.1000	73.2815
556.0000	73.3996
555.9000	73.5211
555.8000	73.6482
555.7000	73.7685
555.6000	73.898
555.5000	74.0218
555.4000	74.1454
555.3000	74.269
555.2000	74.3967
555.1000	74.5185
555.0000	74.6417
554.9000	74.7598
554.8000	74.8766
554.7000	74.9916
554.6000	75.1012
554.5000	75.2071
554.4000	75.309
554.3000	75.4045
554.2000	75.4929
554.1000	75.5787
554.0000	75.6547
553.9000	75.7218
553.8000	75.788
553.7000	75.8448
553.6000	75.8934
553.5000	75.9352
553.4000	75.9724
553.3000	75.998
553.2000	76.0195
553.1000	76.0295
553.0000	76.0339
552.9000	76.027
552.8000	76.0167
552.7000	75.9976
552.6000	75.9683
552.5000	75.9349
552.4000	75.8899
552.3000	75.8372
552.2000	75.7793
552.1000	75.7117
552.0000	75.6337
551.9000	75.5505
551.8000	75.4632
551.7000	75.3708
551.6000	75.2726
551.5000	75.166
551.4000	75.0524
551.3000	74.94
551.2000	74.8192
551.1000	74.6968
551.0000	74.5688
550.9000	74.4394
550.8000	74.3083
550.7000	74.1767
550.6000	74.0405
550.5000	73.9068
550.4000	73.7706
550.3000	73.6367
550.2000	73.5004
550.1000	73.3688
550.0000	73.2363
549.9000	73.1083
549.8000	72.9798
549.7000	72.8586
549.6000	72.7354
549.5000	72.6162
549.4000	72.5033
549.3000	72.3951
549.2000	72.2911
549.1000	72.1958
549.0000	72.1037
548.9000	72.0194
548.8000	71.9417
548.7000	71.8721
548.6000	71.8052
548.5000	71.748
548.4000	71.6967
548.3000	71.657
548.2000	71.6267
548.1000	71.5992
548.0000	71.5813
547.9000	71.5718
547.8000	71.5735
547.7000	71.5804
547.6000	71.5939
547.5000	71.6149
547.4000	71.6434
547.3000	71.6816
547.2000	71.7299
547.1000	71.7797
547.0000	71.8367
546.9000	71.9005
546.8000	71.9734
546.7000	72.0503
546.6000	72.1359
546.5000	72.2238
546.4000	72.3204
546.3000	72.4228
546.2000	72.5273
546.1000	72.637
546.0000	72.7492
545.9000	72.8651
545.8000	72.9839
545.7000	73.1026
545.6000	73.2234
545.5000	73.3464
545.4000	73.4713
545.3000	73.5969
545.2000	73.7218
545.1000	73.8438
545.0000	73.9641
544.9000	74.0813
544.8000	74.1985
544.7000	74.3132
544.6000	74.4227
544.5000	74.5294
544.4000	74.6324
544.3000	74.7305
544.2000	74.8275
544.1000	74.9135
544.0000	74.9923
543.9000	75.0694
543.8000	75.143
543.7000	75.2053
543.6000	75.262
543.5000	75.3119
543.4000	75.3527
543.3000	75.3911
543.2000	75.4172
543.1000	75.433
543.0000	75.4454
542.9000	75.4487
542.8000	75.4448
542.7000	75.4295
542.6000	75.4095
542.5000	75.384
542.4000	75.3493
542.3000	75.3045
542.2000	75.2553
542.1000	75.1966
542.0000	75.1327
541.9000	75.0605
541.8000	74.9848
541.7000	74.9059
541.6000	74.817
541.5000	74.7239
541.4000	74.6254
541.3000	74.5232
541.2000	74.4161
541.1000	74.309
541.0000	74.1956
540.9000	74.0797
540.8000	73.9639
540.7000	73.845
540.6000	73.7228
540.5000	73.6046
540.4000	73.4824
540.3000	73.3622
540.2000	73.2422
540.1000	73.1224
540.0000	73.0075
539.9000	72.895
539.8000	72.7829
539.7000	72.6728
539.6000	72.5689
539.5000	72.4734
539.4000	72.3781
539.3000	72.2874
539.2000	72.2033
539.1000	72.1261
539.0000	72.0536
538.9000	71.9878
538.8000	71.9272
538.7000	71.8737
538.6000	71.827
538.5000	71.7861
538.4000	71.7556
538.3000	71.73
538.2000	71.711
538.1000	71.702
538.0000	71.7002
537.9000	71.7067
537.8000	71.7181
537.7000	71.7394
537.6000	71.7691
537.5000	71.8048
537.4000	71.8466
537.3000	71.8976
537.2000	71.9566
537.1000	72.0202
537.0000	72.0917
536.9000	72.1659
536.8000	72.2456
536.7000	72.3325
536.6000	72.4251
536.5000	72.5217
536.4000	72.6228
536.3000	72.7249
536.2000	72.8312
536.1000	72.941
536.0000	73.0535
535.9000	73.1663
535.8000	73.2815
535.7000	73.3979
535.6000	73.5139
535.5000	73.6311
535.4000	73.7501
535.3000	73.8649
535.2000	73.9785
535.1000	74.089
535.0000	74.2004
534.9000	74.3026
534.8000	74.4065
534.7000	74.5051
534.6000	74.6012
534.5000	74.6916
534.4000	74.7745
534.3000	74.8535
534.2000	74.9268
534.1000	74.9923
534.0000	75.0532
533.9000	75.1072
533.8000	75.1564
533.7000	75.1973
533.6000	75.2315
533.5000	75.2578
533.4000	75.2758
533.3000	75.2902
533.2000	75.2949
533.1000	75.2903
533.0000	75.278
532.9000	75.2599
532.8000	75.2349
532.7000	75.2036
532.6000	75.1646
532.5000	75.118
532.4000	75.0678
532.3000	75.0119
532.2000	74.9432
532.1000	74.8714
532.0000	74.7934
531.9000	74.7113
531.8000	74.6259
531.7000	74.5394
531.6000	74.4478
531.5000	74.3499
531.4000	74.2475
531.3000	74.1456
531.2000	74.0416
531.1000	73.9344
531.0000	73.8284
530.9000	73.7208
530.8000	73.6106
530.7000	73.5049
530.6000	73.3959
530.5000	73.2892
530.4000	73.1855
530.3000	73.0854
530.2000	72.9853
530.1000	72.8883
530.0000	72.7966
529.9000	72.7101
529.8000	72.6292
529.7000	72.5529
529.6000	72.4841
529.5000	72.4173
529.4000	72.3557
529.3000	72.2995
529.2000	72.2481
529.1000	72.2021
529.0000	72.1671
528.9000	72.141
528.8000	72.1199
528.7000	72.1086
528.6000	72.0998
528.5000	72.0989
528.4000	72.1005
528.3000	72.1136
528.2000	72.1368
528.1000	72.1665
528.0000	72.2012
527.9000	72.2439
527.8000	72.293
527.7000	72.3465
527.6000	72.406
527.5000	72.4752
527.4000	72.5476
527.3000	72.6279
527.2000	72.7109
527.1000	72.7972
527.0000	72.8899
526.9000	72.9846
526.8000	73.0813
526.7000	73.1829
526.6000	73.2871
526.5000	73.3915
526.4000	73.4952
526.3000	73.6038
526.2000	73.7116
526.1000	73.8211
526.0000	73.9319
525.9000	74.0396
525.8000	74.1476
525.7000	74.2506
525.6000	74.3538
525.5000	74.4522
525.4000	74.5513
525.3000	74.6437
525.2000	74.7388
525.1000	74.8247
525.0000	74.9038
524.9000	74.9775
524.8000	75.0489
524.7000	75.1156
524.6000	75.1731
524.5000	75.2262
524.4000	75.274
524.3000	75.3076
524.2000	75.3396
524.1000	75.3623
524.0000	75.3804
523.9000	75.3912
523.8000	75.3983
523.7000	75.3962
523.6000	75.387
523.5000	75.368
523.4000	75.343
523.3000	75.3147
523.2000	75.2757
523.1000	75.233
523.0000	75.1856
522.9000	75.1321
522.8000	75.0735
522.7000	75.009
522.6000	74.939
522.5000	74.8671
522.4000	74.7892
522.3000	74.7101
522.2000	74.6242
522.1000	74.5399
522.0000	74.4497
521.9000	74.361
521.8000	74.2708
521.7000	74.1808
521.6000	74.0904
521.5000	73.9966
521.4000	73.9073
521.3000	73.8201
521.2000	73.7356
521.1000	73.6547
521.0000	73.5746
520.9000	73.5008
520.8000	73.4253
520.7000	73.3549
520.6000	73.2887
520.5000	73.2289
520.4000	73.1732
520.3000	73.125
520.2000	73.0816
520.1000	73.0427
520.0000	72.8093
519.9000	72.7814
519.8000	72.7654
519.7000	72.7545
519.6000	72.7514
519.5000	72.756
519.4000	72.7615
519.3000	72.7751
519.2000	72.7988
519.1000	72.8322
519.0000	72.8673
518.9000	72.9079
518.8000	72.9554
518.7000	73.0097
518.6000	73.068
518.5000	73.1359
518.4000	73.2082
518.3000	73.2812
518.2000	73.3618
518.1000	73.4456
518.0000	73.5321
517.9000	73.6202
517.8000	73.7128
517.7000	73.8087
517.6000	73.908
517.5000	74.0055
517.4000	74.1058
517.3000	74.2065
517.2000	74.3101
517.1000	74.4136
517.0000	74.5142
516.9000	74.6127
516.8000	74.7104
516.7000	74.8049
516.6000	74.9009
516.5000	74.9912
516.4000	75.078
516.3000	75.16
516.2000	75.2431
516.1000	75.3212
516.0000	75.3914
515.9000	75.4534
515.8000	75.5147
515.7000	75.5709
515.6000	75.6201
515.5000	75.6614
515.4000	75.7023
515.3000	75.7292
515.2000	75.7528
515.1000	75.7686
515.0000	75.7801
514.9000	75.7855
514.8000	75.7837
514.7000	75.7773
514.6000	75.7636
514.5000	75.7437
514.4000	75.7165
514.3000	75.6859
514.2000	75.6502
514.1000	75.6046
514.0000	75.5569
513.9000	75.5054
513.8000	75.4488
513.7000	75.3888
513.6000	75.3249
513.5000	75.2606
513.4000	75.1884
513.3000	75.1178
513.2000	75.0421
513.1000	74.9678
513.0000	74.8915
512.9000	74.8171
512.8000	74.7396
512.7000	74.6661
512.6000	74.5913
512.5000	74.5188
512.4000	74.4469
512.3000	74.3808
512.2000	74.3131
512.1000	74.2498
512.0000	74.1917
511.9000	74.1371
511.8000	74.0828
511.7000	74.0348
511.6000	73.9938
511.5000	73.9574
511.4000	73.9275
511.3000	73.9018
511.2000	73.8819
511.1000	73.8678
511.0000	73.8546
510.9000	73.8544
510.8000	73.8579
510.7000	73.8661
510.6000	73.8796
510.5000	73.9021
510.4000	73.9298
510.3000	73.9641
510.2000	74.0039
510.1000	74.0481
510.0000	74.1007
509.9000	74.1589
509.8000	74.22
509.7000	74.2827
509.6000	74.3522
509.5000	74.426
509.4000	74.5037
509.3000	74.5836
509.2000	74.6704
509.1000	74.754
509.0000	74.8431
508.9000	74.9345
508.8000	75.0225
508.7000	75.1157
508.6000	75.208
508.5000	75.2994
508.4000	75.3917
508.3000	75.4773
508.2000	75.5631
508.1000	75.6472
508.0000	75.7335
507.9000	75.8128
507.8000	75.8951
507.7000	75.973
507.6000	76.0426
507.5000	76.109
507.4000	76.1711
507.3000	76.2277
507.2000	76.2786
507.1000	76.3254
507.0000	76.3658
506.9000	76.4019
506.8000	76.4298
506.7000	76.4514
506.6000	76.47
506.5000	76.4829
506.4000	76.4889
506.3000	76.4861
506.2000	76.4806
506.1000	76.4721
506.0000	76.4519
505.9000	76.4334
505.8000	76.4035
505.7000	76.3711
505.6000	76.3341
505.5000	76.2909
505.4000	76.2476
505.3000	76.2026
505.2000	76.1499
505.1000	76.0978
505.0000	76.0448
504.9000	75.9891
504.8000	75.9289
504.7000	75.8714
504.6000	75.8113
504.5000	75.747
504.4000	75.6875
504.3000	75.6261
504.2000	75.5681
504.1000	75.5086
504.0000	75.4563
503.9000	75.4016
503.8000	75.3535
503.7000	75.3051
503.6000	75.2629
503.5000	75.2239
503.4000	75.1878
503.3000	75.1566
503.2000	75.1329
503.1000	75.1114
503.0000	75.0923
502.9000	75.0773
502.8000	75.0728
502.7000	75.0716
502.6000	75.0744
502.5000	75.0851
502.4000	75.101
502.3000	75.1236
502.2000	75.1496
502.1000	75.1784
502.0000	75.213
501.9000	75.2563
501.8000	75.3012
501.7000	75.3504
501.6000	75.4064
501.5000	75.4619
501.4000	75.5223
501.3000	75.5881
501.2000	75.6591
501.1000	75.7328
501.0000	75.8059
500.9000	75.8823
500.8000	75.9566
500.7000	76.0345
500.6000	76.1126
500.5000	76.193
500.4000	76.2732
500.3000	76.3534
500.2000	76.4316
500.1000	76.5058
500.0000	76.5814
499.9000	76.6594
499.8000	76.7347
499.7000	76.8036
499.6000	76.8674
499.5000	76.9264
499.4000	76.9859
499.3000	77.039
499.2000	77.0874
499.1000	77.1316
499.0000	77.1744
498.9000	77.2103
498.8000	77.2443
498.7000	77.2707
498.6000	77.2895
498.5000	77.3048
498.4000	77.315
498.3000	77.3226
498.2000	77.3239
498.1000	77.3179
498.0000	77.3068
497.9000	77.2935
497.8000	77.2745
497.7000	77.2567
497.6000	77.2331
497.5000	77.2038
497.4000	77.1708
497.3000	77.1331
497.2000	77.0934
497.1000	77.0533
497.0000	77.0111
496.9000	76.9668
496.8000	76.9207
496.7000	76.8709
496.6000	76.8215
496.5000	76.7755
496.4000	76.728
496.3000	76.6811
496.2000	76.6392
496.1000	76.5986
496.0000	76.557
495.9000	76.5187
495.8000	76.4792
495.7000	76.4471
495.6000	76.4136
495.5000	76.382
495.4000	76.3589
495.3000	76.3391
495.2000	76.3213
495.1000	76.3085
495.0000	76.2982
494.9000	76.2975
494.8000	76.2989
494.7000	76.3034
494.6000	76.3161
494.5000	76.3311
494.4000	76.3509
494.3000	76.3789
494.2000	76.4049
494.1000	76.4391
494.0000	76.4762
493.9000	76.5171
493.8000	76.5591
493.7000	76.6095
493.6000	76.66
493.5000	76.7158
493.4000	76.7732
493.3000	76.8311
493.2000	76.894
493.1000	76.9587
493.0000	77.0219
492.9000	77.086
492.8000	77.153
492.7000	77.2173
492.6000	77.2842
492.5000	77.3471
492.4000	77.4138
492.3000	77.4821
492.2000	77.5469
492.1000	77.6082
492.0000	77.6677
491.9000	77.7255
491.8000	77.7812
491.7000	77.8313
491.6000	77.877
491.5000	77.922
491.4000	77.9605
491.3000	77.993
491.2000	78.0238
491.1000	78.0492
491.0000	78.0745
490.9000	78.0946
490.8000	78.1102
490.7000	78.1196
490.6000	78.1294
490.5000	78.1316
490.4000	78.1314
490.3000	78.1234
490.2000	78.1123
490.1000	78.1
490.0000	78.082
489.9000	78.0619
489.8000	78.0394
489.7000	78.0134
489.6000	77.9833
489.5000	77.9556
489.4000	77.9222
489.3000	77.8913
489.2000	77.855
489.1000	77.8172
489.0000	77.7821
488.9000	77.746
488.8000	77.7095
488.7000	77.6706
488.6000	77.6354
488.5000	77.6021
488.4000	77.5703
488.3000	77.5386
488.2000	77.5126
488.1000	77.491
488.0000	77.467
487.9000	77.4453
487.8000	77.4306
487.7000	77.4146
487.6000	77.4051
487.5000	77.3958
487.4000	77.3895
487.3000	77.3888
487.2000	77.3911
487.1000	77.4018
487.0000	77.4149
486.9000	77.4274
486.8000	77.4448
486.7000	77.4669
486.6000	77.4895
486.5000	77.5181
486.4000	77.5535
486.3000	77.5857
486.2000	77.6234
486.1000	77.6637
486.0000	77.709
485.9000	77.754
485.8000	77.8005
485.7000	77.8502
485.6000	77.9013
485.5000	77.954
485.4000	78.0077
485.3000	78.0598
485.2000	78.1123
485.1000	78.1662
485.0000	78.2164
484.9000	78.2643
484.8000	78.3148
484.7000	78.3653
484.6000	78.411
484.5000	78.4562
484.4000	78.4997
484.3000	78.5385
484.2000	78.5752
484.1000	78.6105
484.0000	78.6445
483.9000	78.6709
483.8000	78.695
483.7000	78.7171
483.6000	78.7394
483.5000	78.7545
483.4000	78.7689
483.3000	78.7786
483.2000	78.7819
483.1000	78.7847
483.0000	78.7847
482.9000	78.7799
482.8000	78.7705
482.7000	78.7593
482.6000	78.7437
482.5000	78.7241
482.4000	78.7019
482.3000	78.6805
482.2000	78.6554
482.1000	78.6291
482.0000	78.6055
481.9000	78.5748
481.8000	78.548
481.7000	78.5219
481.6000	78.4931
481.5000	78.4643
481.4000	78.4339
481.3000	78.4056
481.2000	78.3774
481.1000	78.3556
481.0000	78.3336
480.9000	78.3094
480.8000	78.2862
480.7000	78.2667
480.6000	78.2496
480.5000	78.2358
480.4000	78.2217
480.3000	78.2119
480.2000	78.2068
480.1000	78.2026
480.0000	78.2003
479.9000	78.2009
479.8000	78.2057
479.7000	78.2132
479.6000	78.2237
479.5000	78.238
479.4000	78.2549
479.3000	78.2746
479.2000	78.2998
479.1000	78.3232
479.0000	78.3509
478.9000	78.3794
478.8000	78.4076
478.7000	78.4427
478.6000	78.4739
478.5000	78.5069
478.4000	78.5429
478.3000	78.5791
478.2000	78.6187
478.1000	78.656
478.0000	78.6927
477.9000	78.7277
477.8000	78.766
477.7000	78.8041
477.6000	78.8387
477.5000	78.8724
477.4000	78.9052
477.3000	78.9362
477.2000	78.9655
477.1000	78.9918
477.0000	79.0105
476.9000	79.0337
476.8000	79.0544
476.7000	79.072
476.6000	79.0854
476.5000	79.0976
476.4000	79.1057
476.3000	79.1116
476.2000	79.1126
476.1000	79.1136
476.0000	79.1096
475.9000	79.1031
475.8000	79.0936
475.7000	79.084
475.6000	79.0705
475.5000	79.0574
475.4000	79.0422
475.3000	79.025
475.2000	79.0065
475.1000	78.9832
475.0000	78.9594
474.9000	78.9358
474.8000	78.9115
474.7000	78.8866
474.6000	78.8553
474.5000	78.8269
474.4000	78.8003
474.3000	78.7748
474.2000	78.7495
474.1000	78.7276
474.0000	78.7058
473.9000	78.6851
473.8000	78.6659
473.7000	78.6457
473.6000	78.6312
473.5000	78.6193
473.4000	78.6066
473.3000	78.5969
473.2000	78.5886
473.1000	78.5828
473.0000	78.5823
472.9000	78.5796
472.8000	78.5808
472.7000	78.5854
472.6000	78.5926
472.5000	78.6023
472.4000	78.613
472.3000	78.6193
472.2000	78.6326
472.1000	78.6488
472.0000	78.6649
471.9000	78.6865
471.8000	78.7054
471.7000	78.7288
471.6000	78.7513
471.5000	78.7768
471.4000	78.8025
471.3000	78.8297
471.2000	78.8529
471.1000	78.8762
471.0000	78.9002
470.9000	78.9218
470.8000	78.9447
470.7000	78.966
470.6000	78.9884
470.5000	79.0087
470.4000	79.026
470.3000	79.0402
470.2000	79.0518
470.1000	79.0616
470.0000	79.0707
469.9000	79.0781
469.8000	79.0817
469.7000	79.0827
469.6000	79.0827
469.5000	79.0822
469.4000	79.0795
469.3000	79.0725
469.2000	79.0683
469.1000	79.0619
469.0000	79.0497
468.9000	79.0311
468.8000	79.0155
468.7000	78.9979
468.6000	78.9814
468.5000	78.9611
468.4000	78.9384
468.3000	78.9115
468.2000	78.8883
468.1000	78.8608
468.0000	78.8395
467.9000	78.8168
467.8000	78.792
467.7000	78.7657
467.6000	78.7381
467.5000	78.7157
467.4000	78.6934
467.3000	78.6706
467.2000	78.6465
467.1000	78.6257
467.0000	78.6081
466.9000	78.5896
466.8000	78.5759
466.7000	78.5611
466.6000	78.5491
466.5000	78.5435
466.4000	78.5367
466.3000	78.5298
466.2000	78.5242
466.1000	78.5187
466.0000	78.5143
465.9000	78.5123
465.8000	78.5169
465.7000	78.5224
465.6000	78.5279
465.5000	78.5303
465.4000	78.5385
465.3000	78.5467
465.2000	78.5547
465.1000	78.5658
465.0000	78.5782
464.9000	78.5909
464.8000	78.6021
464.7000	78.6139
464.6000	78.6289
464.5000	78.644
464.4000	78.6566
464.3000	78.6705
464.2000	78.6813
464.1000	78.6903
464.0000	78.7041
463.9000	78.715
463.8000	78.7243
463.7000	78.7304
463.6000	78.7308
463.5000	78.7335
463.4000	78.7351
463.3000	78.7341
463.2000	78.7323
463.1000	78.7277
463.0000	78.7222
462.9000	78.7151
462.8000	78.7057
462.7000	78.6978
462.6000	78.686
462.5000	78.6714
462.4000	78.6584
462.3000	78.643
462.2000	78.6216
462.1000	78.6025
462.0000	78.5837
461.9000	78.5631
461.8000	78.541
461.7000	78.5203
461.6000	78.4976
461.5000	78.4701
461.4000	78.4443
461.3000	78.4194
461.2000	78.3965
461.1000	78.3675
461.0000	78.3456
460.9000	78.3232
460.8000	78.2961
460.7000	78.2754
460.6000	78.2551
460.5000	78.2363
460.4000	78.2237
460.3000	78.2071
460.2000	78.1913
460.1000	78.1761
460.0000	78.1627
459.9000	78.1519
459.8000	78.1381
459.7000	78.1299
459.6000	78.1202
459.5000	78.1137
459.4000	78.107
459.3000	78.1057
459.2000	78.1006
459.1000	78.0988
459.0000	78.0951
458.9000	78.096
458.8000	78.0947
458.7000	78.0988
458.6000	78.101
458.5000	78.1022
458.4000	78.1017
458.3000	78.1058
458.2000	78.11
458.1000	78.1129
458.0000	78.1136
457.9000	78.1154
457.8000	78.1162
457.7000	78.1172
457.6000	78.1182
457.5000	78.1159
457.4000	78.1122
457.3000	78.1078
457.2000	78.1009
457.1000	78.098
457.0000	78.0925
456.9000	78.0911
456.8000	78.0801
456.7000	78.0696
456.6000	78.0596
456.5000	78.0476
456.4000	78.0351
456.3000	78.0185
456.2000	78.0015
456.1000	77.9822
456.0000	77.9649
455.9000	77.9461
455.8000	77.9262
455.7000	77.9014
455.6000	77.8819
455.5000	77.8555
455.4000	77.833
455.3000	77.8104
455.2000	77.7869
455.1000	77.763
455.0000	77.7346
454.9000	77.7089
454.8000	77.6855
454.7000	77.6628
454.6000	77.6391
454.5000	77.6132
454.4000	77.5901
454.3000	77.5658
454.2000	77.5454
454.1000	77.5252
454.0000	77.5062
453.9000	77.4833
453.8000	77.4629
453.7000	77.4366
453.6000	77.4179
453.5000	77.4009
453.4000	77.3861
453.3000	77.3718
453.2000	77.3587
453.1000	77.3478
453.0000	77.3328
452.9000	77.321
452.8000	77.3071
452.7000	77.294
452.6000	77.2883
452.5000	77.2809
452.4000	77.2701
452.3000	77.2642
452.2000	77.2528
452.1000	77.2417
452.0000	77.2343
451.9000	77.2241
451.8000	77.2196
451.7000	77.2091
451.6000	77.1986
451.5000	77.1872
451.4000	77.176
451.3000	77.1677
451.2000	77.1587
451.1000	77.1437
451.0000	77.13
450.9000	77.1153
450.8000	77.0984
450.7000	77.0833
450.6000	77.0664
450.5000	77.0508
450.4000	77.0352
450.3000	77.0121
450.2000	76.9913
450.1000	76.973
450.0000	76.9514
449.9000	76.9283
449.8000	76.9074
449.7000	76.883
449.6000	76.8554
449.5000	76.8353
449.4000	76.8068
449.3000	76.7795
449.2000	76.7553
449.1000	76.7262
449.0000	76.6996
448.9000	76.6707
448.8000	76.6413
448.7000	76.6139
448.6000	76.5835
448.5000	76.5576
448.4000	76.5296
448.3000	76.5012
448.2000	76.469
448.1000	76.4427
448.0000	76.4157
447.9000	76.3918
447.8000	76.3658
447.7000	76.3394
447.6000	76.3131
447.5000	76.2894
447.4000	76.2653
447.3000	76.2422
447.2000	76.218
447.1000	76.201
447.0000	76.1813
446.9000	76.1564
446.8000	76.1356
446.7000	76.113
446.6000	76.092
446.5000	76.0731
446.4000	76.0565
446.3000	76.0327
446.2000	76.0112
446.1000	75.9894
446.0000	75.9675
445.9000	75.9467
445.8000	75.927
445.7000	75.9069
445.6000	75.8874
445.5000	75.8658
445.4000	75.8417
445.3000	75.8182
445.2000	75.7964
445.1000	75.7775
445.0000	75.7603
444.9000	75.7365
444.8000	75.7112
444.7000	75.687
444.6000	75.6623
444.5000	75.64
444.4000	75.6131
444.3000	75.586
444.2000	75.559
444.1000	75.5305
444.0000	75.5022
443.9000	75.4728
443.8000	75.4419
443.7000	75.4159
443.6000	75.386
443.5000	75.3561
443.4000	75.327
443.3000	75.2949
443.2000	75.2673
443.1000	75.2409
443.0000	75.2115
442.9000	75.1837
442.8000	75.1523
442.7000	75.1256
442.6000	75.0954
442.5000	75.0688
442.4000	75.0404
442.3000	75.0155
442.2000	74.9896
442.1000	74.9659
442.0000	74.9394
441.9000	74.9126
441.8000	74.8845
441.7000	74.8573
441.6000	74.8283
441.5000	74.8021
441.4000	74.775
441.3000	74.7465
441.2000	74.7241
441.1000	74.6975
441.0000	74.6718
440.9000	74.6484
440.8000	74.6202
440.7000	74.5955
440.6000	74.569
440.5000	74.5437
440.4000	74.5137
440.3000	74.4872
440.2000	74.4584
440.1000	74.4322
440.0000	74.4017
439.9000	74.3732
439.8000	74.348
439.7000	74.3203
439.6000	74.2919
439.5000	74.2625
439.4000	74.2342
439.3000	74.2059
439.2000	74.1752
439.1000	74.1449
439.0000	74.1117
438.9000	74.0801
438.8000	74.0505
438.7000	74.0204
438.6000	73.9881
438.5000	73.9572
438.4000	73.9277
438.3000	73.8976
438.2000	73.8694
438.1000	73.8403
438.0000	73.813
437.9000	73.7854
437.8000	73.7582
437.7000	73.7313
437.6000	73.7111
437.5000	73.6818
437.4000	73.6538
437.3000	73.6223
437.2000	73.5983
437.1000	73.5716
437.0000	73.5492
436.9000	73.5238
436.8000	73.4963
436.7000	73.4696
436.6000	73.4412
436.5000	73.418
436.4000	73.3956
436.3000	73.3701
436.2000	73.3454
436.1000	73.316
436.0000	73.2899
435.9000	73.2641
435.8000	73.2407
435.7000	73.2137
435.6000	73.186
435.5000	73.1556
435.4000	73.1297
435.3000	73.1029
435.2000	73.0747
435.1000	73.0458
435.0000	73.0155
434.9000	72.9901
434.8000	72.9578
434.7000	72.9282
434.6000	72.8985
434.5000	72.8686
434.4000	72.8351
434.3000	72.8057
434.2000	72.7756
434.1000	72.7452
434.0000	72.7194
433.9000	72.6908
433.8000	72.6556
433.7000	72.6266
433.6000	72.5982
433.5000	72.5693
433.4000	72.5441
433.3000	72.5136
433.2000	72.4861
433.1000	72.4567
433.0000	72.43
432.9000	72.4054
432.8000	72.3799
432.7000	72.3524
432.6000	72.3265
432.5000	72.3032
432.4000	72.2806
432.3000	72.2579
432.2000	72.2338
432.1000	72.2112
432.0000	72.1923
431.9000	72.1741
431.8000	72.1539
431.7000	72.1311
431.6000	72.108
431.5000	72.0864
431.4000	72.0632
431.3000	72.0396
431.2000	72.0183
431.1000	71.9962
431.0000	71.9746
430.9000	71.9558
430.8000	71.9288
430.7000	71.9067
430.6000	71.8871
430.5000	71.8638
430.4000	71.8416
430.3000	71.8176
430.2000	71.7924
430.1000	71.7695
430.0000	71.7431
429.9000	71.7208
429.8000	71.693
429.7000	71.6683
429.6000	71.6433
429.5000	71.6237
429.4000	71.5983
429.3000	71.5714
429.2000	71.5457
429.1000	71.5198
429.0000	71.4955
428.9000	71.4694
428.8000	71.4458
428.7000	71.4225
428.6000	71.399
428.5000	71.3788
428.4000	71.3608
428.3000	71.3413
428.2000	71.3227
428.1000	71.3049
428.0000	71.2872
427.9000	71.2713
427.8000	71.2582
427.7000	71.2453
427.6000	71.2348
427.5000	71.2231
427.4000	71.2102
427.3000	71.2028
427.2000	71.1938
427.1000	71.1879
427.0000	71.18
426.9000	71.1724
426.8000	71.1681
426.7000	71.162
426.6000	71.1587
426.5000	71.1558
426.4000	71.1528
426.3000	71.1472
426.2000	71.1456
426.1000	71.1436
426.0000	71.1433
425.9000	71.1439
425.8000	71.1404
425.7000	71.1393
425.6000	71.1347
425.5000	71.1314
425.4000	71.126
425.3000	71.1218
425.2000	71.1199
425.1000	71.1164
425.0000	71.113
424.9000	71.1099
424.8000	71.1041
424.7000	71.0983
424.6000	71.0933
424.5000	71.0866
424.4000	71.0825
424.3000	71.0763
424.2000	71.071
424.1000	71.0658
424.0000	71.063
423.9000	71.0552
423.8000	71.0496
423.7000	71.0437
423.6000	71.037
423.5000	71.0316
423.4000	71.0261
423.3000	71.021
423.2000	71.0181
423.1000	71.0174
423.0000	71.0164
422.9000	71.0168
422.8000	71.0115
422.7000	71.0112
422.6000	71.0117
422.5000	71.0146
422.4000	71.0163
422.3000	71.0168
422.2000	71.0198
422.1000	71.0236
422.0000	71.0234
421.9000	71.0238
421.8000	71.025
421.7000	71.0261
421.6000	71.0281
421.5000	71.0311
421.4000	71.0311
421.3000	71.0325
421.2000	71.0304
421.1000	71.0321
421.0000	71.033
420.9000	71.0266
420.8000	71.0212
420.7000	71.0182
420.6000	71.0154
420.5000	71.0133
420.4000	71.0092
420.3000	71.0065
420.2000	71.001
420.1000	70.9943
420.0000	70.3232
419.9000	70.3146
419.8000	70.2942
419.7000	70.2824
419.6000	70.2637
419.5000	70.2458
419.4000	70.2257
419.3000	70.2107
419.2000	70.1879
419.1000	70.1724
419.0000	70.1528
418.9000	70.1399
418.8000	70.1207
418.7000	70.1039
418.6000	70.0925
418.5000	70.0764
418.4000	70.0633
418.3000	70.0508
418.2000	70.0383
418.1000	70.0261
418.0000	70.0141
417.9000	70.0036
417.8000	69.9941
417.7000	69.9843
417.6000	69.9861
417.5000	69.9783
417.4000	69.9763
417.3000	69.9709
417.2000	69.9734
417.1000	69.9719
417.0000	69.9784
416.9000	69.972
416.8000	69.9792
416.7000	69.9719
416.6000	69.9791
416.5000	69.9771
416.4000	69.9832
416.3000	69.9822
416.2000	69.9921
416.1000	69.9902
416.0000	70.0035
415.9000	70.0045
415.8000	70.0153
415.7000	70.015
415.6000	70.0263
415.5000	70.0244
415.4000	70.031
415.3000	70.0312
415.2000	70.041
415.1000	70.0359
415.0000	70.0456
414.9000	70.0451
414.8000	70.0567
414.7000	70.0554
414.6000	70.066
414.5000	70.0628
414.4000	70.0728
414.3000	70.0746
414.2000	70.0874
414.1000	70.0836
414.0000	70.0969
413.9000	70.0985
413.8000	70.1065
413.7000	70.1121
413.6000	70.1239
413.5000	70.1284
413.4000	70.1458
413.3000	70.1537
413.2000	70.1722
413.1000	70.1806
413.0000	70.1968
412.9000	70.2033
412.8000	70.2177
412.7000	70.2264
412.6000	70.2416
412.5000	70.2501
412.4000	70.2625
412.3000	70.2713
412.2000	70.2899
412.1000	70.2974
412.0000	70.3127
411.9000	70.326
411.8000	70.339
411.7000	70.3473
411.6000	70.358
411.5000	70.3654
411.4000	70.375
411.3000	70.3808
411.2000	70.388
411.1000	70.3955
411.0000	70.3993
410.9000	70.409
410.8000	70.4146
410.7000	70.4229
410.6000	70.4293
410.5000	70.434
410.4000	70.4427
410.3000	70.4496
410.2000	70.4515
410.1000	70.4553
410.0000	70.458
409.9000	70.4648
409.8000	70.4676
409.7000	70.4754
409.6000	70.4765
409.5000	70.4852
409.4000	70.4858
409.3000	70.4949
409.2000	70.5002
409.1000	70.511
409.0000	70.5114
408.9000	70.5245
408.8000	70.5269
408.7000	70.5355
408.6000	70.5411
408.5000	70.553
408.4000	70.5566
408.3000	70.572
408.2000	70.5779
408.1000	70.5952
408.0000	70.5963
407.9000	70.6085
407.8000	70.6098
407.7000	70.6262
407.6000	70.6228
407.5000	70.6365
407.4000	70.6372
407.3000	70.6517
407.2000	70.6456
407.1000	70.6579
407.0000	70.6509
406.9000	70.658
406.8000	70.6521
406.7000	70.6615
406.6000	70.6516
406.5000	70.6633
406.4000	70.6541
406.3000	70.6597
406.2000	70.6533
406.1000	70.6584
406.0000	70.6512
405.9000	70.656
405.8000	70.6448
405.7000	70.6477
405.6000	70.6384
405.5000	70.6487
405.4000	70.6331
405.3000	70.6399
405.2000	70.6333
405.1000	70.6382
405.0000	70.6305
404.9000	70.6357
404.8000	70.6302
404.7000	70.6373
404.6000	70.6329
404.5000	70.6408
404.4000	70.6387
404.3000	70.6442
404.2000	70.6414
404.1000	70.6494
404.0000	70.6453
403.9000	70.6565
403.8000	70.6593
403.7000	70.676
403.6000	70.6755
403.5000	70.6857
403.4000	70.6922
403.3000	70.7017
403.2000	70.7118
403.1000	70.7255
403.0000	70.7341
402.9000	70.7494
402.8000	70.7592
402.7000	70.7741
402.6000	70.7881
402.5000	70.8069
402.4000	70.82
402.3000	70.8344
402.2000	70.8548
402.1000	70.8724
402.0000	70.8924
401.9000	70.9101
401.8000	70.9344
401.7000	70.9532
401.6000	70.981
401.5000	71.0014
401.4000	71.0288
401.3000	71.0469
401.2000	71.0771
401.1000	71.1005
401.0000	71.1314
400.9000	71.1513
400.8000	71.1849
400.7000	71.2044
400.6000	71.2331
400.5000	71.2489
400.4000	71.2815
400.3000	71.304
400.2000	71.3377
400.1000	71.3631
400.0000	71.3922
399.9000	71.4095
399.8000	71.4374
399.7000	71.4602
399.6000	71.4939
399.5000	71.5153
399.4000	71.5463
399.3000	71.5627
399.2000	71.5947
399.1000	71.6122
399.0000	71.6456
398.9000	71.6597
398.8000	71.6876
398.7000	71.7081
398.6000	71.7358
398.5000	71.7547
398.4000	71.7798
398.3000	71.7938
398.2000	71.8241
398.1000	71.8416
398.0000	71.869
397.9000	71.8842
397.8000	71.9094
397.7000	71.9274
397.6000	71.9536
397.5000	71.9718
397.4000	72.002
397.3000	72.0184
397.2000	72.0463
397.1000	72.0596
397.0000	72.0804
396.9000	72.0883
396.8000	72.113
396.7000	72.1263
396.6000	72.1507
396.5000	72.1563
396.4000	72.1773
396.3000	72.1891
396.2000	72.2082
396.1000	72.22
396.0000	72.2372
395.9000	72.2503
395.8000	72.2702
395.7000	72.282
395.6000	72.3022
395.5000	72.3106
395.4000	72.3265
395.3000	72.3324
395.2000	72.3466
395.1000	72.3607
395.0000	72.3757
394.9000	72.3821
394.8000	72.3942
394.7000	72.4024
394.6000	72.4167
394.5000	72.4259
394.4000	72.4399
394.3000	72.4428
394.2000	72.455
394.1000	72.4663
394.0000	72.4747
393.9000	72.4817
393.8000	72.4938
393.7000	72.4991
393.6000	72.5087
393.5000	72.521
393.4000	72.5293
393.3000	72.5398
393.2000	72.5459
393.1000	72.5504
393.0000	72.5565
392.9000	72.5656
392.8000	72.5743
392.7000	72.577
392.6000	72.5789
392.5000	72.5856
392.4000	72.5847
392.3000	72.5863
392.2000	72.5922
392.1000	72.5984
392.0000	72.6063
391.9000	72.6085
391.8000	72.6119
391.7000	72.6165
391.6000	72.6238
391.5000	72.6278
391.4000	72.6339
391.3000	72.6375
391.2000	72.6409
391.1000	72.6469
391.0000	72.6508
390.9000	72.6546
390.8000	72.658
390.7000	72.6641
390.6000	72.6691
390.5000	72.6738
390.4000	72.6806
390.3000	72.6813
390.2000	72.6879
390.1000	72.6894
390.0000	72.6911
389.9000	72.6901
389.8000	72.6968
389.7000	72.6969
389.6000	72.6977
389.5000	72.6994
389.4000	72.7048
389.3000	72.7014
389.2000	72.7071
389.1000	72.709
389.0000	72.7117
388.9000	72.7146
388.8000	72.7136
388.7000	72.7146
388.6000	72.7143
388.5000	72.7107
388.4000	72.7077
388.3000	72.7039
388.2000	72.6997
388.1000	72.6961
388.0000	72.6969
387.9000	72.6905
387.8000	72.6883
387.7000	72.6828
387.6000	72.6815
387.5000	72.6768
387.4000	72.6706
387.3000	72.665
387.2000	72.6633
387.1000	72.6552
387.0000	72.6495
386.9000	72.6379
386.8000	72.6321
386.7000	72.6286
386.6000	72.6211
386.5000	72.607
386.4000	72.5992
386.3000	72.5865
386.2000	72.5759
386.1000	72.5692
386.0000	72.5626
385.9000	72.5502
385.8000	72.5347
385.7000	72.5153
385.6000	72.5038
385.5000	72.4897
385.4000	72.4759
385.3000	72.465
385.2000	72.4527
385.1000	72.4332
385.0000	72.4177
384.9000	72.3989
384.8000	72.3824
384.7000	72.3621
384.6000	72.3409
384.5000	72.3177
384.4000	72.2928
384.3000	72.2659
384.2000	72.2457
384.1000	72.2207
384.0000	72.1946
383.9000	72.1725
383.8000	72.15
383.7000	72.1296
383.6000	72.1041
383.5000	72.0747
383.4000	72.0444
383.3000	72.0174
383.2000	71.9899
383.1000	71.9581
383.0000	71.9263
382.9000	71.8956
382.8000	71.8623
382.7000	71.828
382.6000	71.7956
382.5000	71.7617
382.4000	71.7246
382.3000	71.6859
382.2000	71.6472
382.1000	71.6036
382.0000	71.5594
381.9000	71.5157
381.8000	71.4738
381.7000	71.4315
381.6000	71.383
381.5000	71.336
381.4000	71.2922
381.3000	71.2427
381.2000	71.1966
381.1000	71.1457
381.0000	71.0968
380.9000	71.0435
380.8000	70.9921
380.7000	70.9317
380.6000	70.8753
380.5000	70.8189
380.4000	70.7614
380.3000	70.7021
380.2000	70.6466
380.1000	70.5843
380.0000	70.5258
379.9000	70.4646
379.8000	70.4002
379.7000	70.3282
379.6000	70.2593
379.5000	70.19
379.4000	70.1186
379.3000	70.0443
379.2000	69.9684
379.1000	69.8892
379.0000	69.8148
378.9000	69.7319
378.8000	69.6509
378.7000	69.5658
378.6000	69.4818
378.5000	69.3957
378.4000	69.3114
378.3000	69.2231
378.2000	69.134
378.1000	69.0447
378.0000	68.9518
377.9000	68.8547
377.8000	68.7587
377.7000	68.6604
377.6000	68.5588
377.5000	68.456
377.4000	68.3543
377.3000	68.2457
377.2000	68.1382
377.1000	68.0234
377.0000	67.9079
376.9000	67.7924
376.8000	67.6691
376.7000	67.5464
376.6000	67.4261
376.5000	67.297
376.4000	67.1703
376.3000	67.0375
376.2000	66.9058
376.1000	66.7696
376.0000	66.6342
375.9000	66.4925
375.8000	66.3513
375.7000	66.2041
375.6000	66.0597
375.5000	65.9113
375.4000	65.7571
375.3000	65.5949
375.2000	65.4372
375.1000	65.2712
375.0000	65.1009
374.9000	64.9232
374.8000	64.749
374.7000	64.5681
374.6000	64.3808
374.5000	64.1909
374.4000	63.9978
374.3000	63.7994
374.2000	63.5937
374.1000	63.3823
374.0000	63.1724
373.9000	62.9481
373.8000	62.7297
373.7000	62.4986
373.6000	62.2687
373.5000	62.0291
373.4000	61.7826
373.3000	61.5316
373.2000	61.2734
373.1000	61.007
373.0000	60.7404
372.9000	60.4634
372.8000	60.1847
372.7000	59.8873
372.6000	59.5845
372.5000	59.2768
372.4000	58.9624
372.3000	58.6338
372.2000	58.3043
372.1000	57.9604
372.0000	57.6091
371.9000	57.2476
371.8000	56.88
371.7000	56.5026
371.6000	56.1207
371.5000	55.7296
371.4000	55.3336
371.3000	54.9186
371.2000	54.4986
371.1000	54.0631
371.0000	53.6261
370.9000	53.1699
370.8000	52.7108
370.7000	52.2402
370.6000	51.7601
370.5000	51.2689
370.4000	50.7698
370.3000	50.2528
370.2000	49.7363
370.1000	49.2036
370.0000	45.5626
369.9000	45.0143
369.8000	44.4566
369.7000	43.8893
369.6000	43.3065
369.5000	42.7182
369.4000	42.122
369.3000	41.5164
369.2000	40.8993
369.1000	40.2775
369.0000	39.6468
368.9000	39.0068
368.8000	38.3578
368.7000	37.7016
368.6000	37.0353
368.5000	36.3671
368.4000	35.6963
368.3000	35.0208
368.2000	34.3353
368.1000	33.6428
368.0000	32.947
367.9000	32.2534
367.8000	31.5511
367.7000	30.8496
367.6000	30.1425
367.5000	29.435
367.4000	28.7257
367.3000	28.015
367.2000	27.3102
367.1000	26.6075
367.0000	25.9072
366.9000	25.211
366.8000	24.5103
366.7000	23.8189
366.6000	23.1277
366.5000	22.4469
366.4000	21.7739
366.3000	21.1056
366.2000	20.4424
366.1000	19.7832
366.0000	19.1319
365.9000	18.4885
365.8000	17.8505
365.7000	17.2287
365.6000	16.6146
365.5000	16.0115
365.4000	15.4161
365.3000	14.8326
365.2000	14.2553
365.1000	13.6907
365.0000	13.1396
364.9000	12.6019
364.8000	12.0741
364.7000	11.5567
364.6000	11.0522
364.5000	10.5612
364.4000	10.084
364.3000	9.62014
364.2000	9.16681
364.1000	8.72902
364.0000	8.3011
363.9000	7.88679
363.8000	7.48156
363.7000	7.09152
363.6000	6.71343
363.5000	6.34946
363.4000	5.99927
363.3000	5.65995
363.2000	5.32998
363.1000	5.0148
363.0000	4.71137
362.9000	4.42212
362.8000	4.14443
362.7000	3.87966
362.6000	3.62642
362.5000	3.38447
362.4000	3.15238
362.3000	2.93242
362.2000	2.72303
362.1000	2.52484
362.0000	2.33735
361.9000	2.16067
361.8000	1.99195
361.7000	1.83332
361.6000	1.68349
361.5000	1.54355
361.4000	1.41226
361.3000	1.28961
361.2000	1.17418
361.1000	1.06777
361.0000	0.967702
360.9000	0.87541
360.8000	0.789694
360.7000	0.711246
360.6000	0.639877
360.5000	0.573778
360.4000	0.513355
360.3000	0.457608
360.2000	0.406725
360.1000	0.36099
360.0000	0.319463
359.9000	0.282
359.8000	0.24792
359.7000	0.217387
359.6000	0.190112
359.5000	0.16563
359.4000	0.143975
359.3000	0.124762
359.2000	0.10797
359.1000	0.0931191
359.0000	0.0800888
358.9000	0.0687254
358.8000	0.0588298
358.7000	0.0503364
358.6000	0.0431174
358.5000	0.036841
358.4000	0.0315073
358.3000	0.0270335
358.2000	0.0230518
358.1000	0.0197472
358.0000	0.0170456
357.9000	0.0147544
357.8000	0.0129119
357.7000	0.011336
357.6000	0.00998346
357.5000	0.0089311
357.4000	0.00806564
357.3000	0.00727731
357.2000	0.00678757
357.1000	0.0063002
357.0000	0.00588538
356.9000	0.00554599
356.8000	0.00524383
356.7000	0.00497877
356.6000	0.00475283
356.5000	0.00460225
356.4000	0.00445504
356.3000	0.00430788
356.2000	0.00416119
356.1000	0.00405042
356.0000	0.00397624
355.9000	0.003866
355.8000	0.00371999
355.7000	0.00368165
355.6000	0.00353581
355.5000	0.00338995
355.4000	0.00328028
355.3000	0.00320641
355.2000	0.00313302
355.1000	0.00302374
355.0000	0.0030224
354.9000	0.00291281
354.8000	0.00294733
354.7000	0.00287406
354.6000	0.00283739
354.5000	0.00287169
354.4000	0.00287056
354.3000	0.00283338
354.2000	0.0027605
354.1000	0.00272346
354.0000	0.00265077
353.9000	0.00264952
353.8000	0.00261276
353.7000	0.00257605
353.6000	0.00253955
353.5000	0.00250255
353.4000	0.00246551
353.3000	0.00239316
353.2000	0.00239218
353.1000	0.00239126
353.0000	0.00239051
352.9000	0.00228298
352.8000	0.0022114
352.7000	0.00210384
352.6000	0.002103
352.5000	0.00199576
352.4000	0.00203047
352.3000	0.00206488
352.2000	0.00206436
352.1000	0.00206333
352.0000	0.0019921
351.9000	0.00195573
351.8000	0.00188425
351.7000	0.00188418
351.6000	0.0017774
351.5000	0.00174132
351.4000	0.00174045
351.3000	0.00163334
351.2000	0.00163266
351.1000	0.0015966
351.0000	0.00156129
350.9000	0.0015609
350.8000	0.0015256
350.7000	0.00148954
350.6000	0.00148958
350.5000	0.00145345
350.4000	0.001453
350.3000	0.00141734
350.2000	0.00145235
350.1000	0.00145186
350.0000	0.00141612
349.9000	0.00134513
349.8000	0.00134497
349.7000	0.00134447
349.6000	0.00134442
349.5000	0.00141457
349.4000	0.00137907
349.3000	0.00144883
349.2000	0.00144829
349.1000	0.00137751
349.0000	0.00141193
348.9000	0.00141173
348.8000	0.00151676
348.7000	0.00151632
348.6000	0.00148117
348.5000	0.00144551
348.4000	0.00148037
348.3000	0.00148013
348.2000	0.00140984
348.1000	0.00137428
348.0000	0.00133899
347.9000	0.00126846
347.8000	0.00126776
347.7000	0.00126765
347.6000	0.00126729
347.5000	0.00119684
347.4000	0.00119656
347.3000	0.00123149
347.2000	0.00123116
347.1000	0.00119576
347.0000	0.00112539
346.9000	0.00116036
346.8000	0.00109061
346.7000	0.00112557
346.6000	0.00105534
346.5000	0.00109017
346.4000	0.00105473
346.3000	0.00105446
346.2000	0.00112426
346.1000	0.00105411
346.0000	0.00105434
345.9000	0.00112442
345.8000	0.0011246
345.7000	0.00108936
345.6000	0.00108923
345.5000	0.00108932
345.4000	0.00108912
345.3000	0.00105372
345.2000	0.00105355
345.1000	0.0010535
345.0000	0.00108798
344.9000	0.00112281
344.8000	0.00112304
344.7000	0.00108822
344.6000	0.00112336
344.5000	0.00108788
344.4000	0.00108818
344.3000	0.00112267
344.2000	0.00112205
344.1000	0.00108701
344.0000	0.00105221
343.9000	0.00105222
343.8000	0.00108709
343.7000	0.000982404
343.6000	0.00108709
343.5000	0.0010519
343.4000	0.00108703
343.3000	0.00112194
343.2000	0.00112192
343.1000	0.00112176
343.0000	0.00101702
342.9000	0.00101703
342.8000	0.000946825
342.7000	0.000876552
342.6000	0.000876879
342.5000	0.000876753
342.4000	0.000806575
342.3000	0.000806744
342.2000	0.00084133
342.1000	0.000876335
342.0000	0.000876043
341.9000	0.000806331
341.8000	0.000702296
341.7000	0.000632884
341.6000	0.000597966
341.5000	0.000667234
341.4000	0.000632023
341.3000	0.000666968
341.2000	0.00066665
341.1000	0.000701714
341.0000	0.000632234
340.9000	0.000597014
340.8000	0.00070139
340.7000	0.00077081
340.6000	0.000771059
340.5000	0.000840378
340.4000	0.000839878
340.3000	0.000874612
340.2000	0.000874185
340.1000	0.000838781
340.0000	0.0095714
339.9000	0.00957221
339.8000	0.0096494
339.7000	0.00968799
339.6000	0.00976565
339.5000	0.00968741
339.4000	0.00960992
339.3000	0.00953293
339.2000	0.00945842
339.1000	0.00941991
339.0000	0.00942033
338.9000	0.0094211
338.8000	0.00934492
338.7000	0.00938398
338.6000	0.00930681
338.5000	0.00942196
338.4000	0.00946059
338.3000	0.00949753
338.2000	0.00949786
338.1000	0.00945921
338.0000	0.00949718
337.9000	0.00946093
337.8000	0.00938313
337.7000	0.00934301
337.6000	0.0093406
337.5000	0.00933951
337.4000	0.00937937
337.3000	0.0094184
337.2000	0.00941838
337.1000	0.00945661
337.0000	0.0094177
336.9000	0.0094183
336.8000	0.00949517
336.7000	0.00949428
336.6000	0.00949358
336.5000	0.00945418
336.4000	0.00937668
336.3000	0.00941522
336.2000	0.00945313
336.1000	0.00941478
336.0000	0.00941373
335.9000	0.00933742
335.8000	0.00933926
335.7000	0.0092229
335.6000	0.00926036
335.5000	0.00918202
335.4000	0.00914253
335.3000	0.00898863
335.2000	0.00891195
335.1000	0.00883434
335.0000	0.00875858
334.9000	0.00875876
334.8000	0.00868129
334.7000	0.00864051
334.6000	0.00864081
334.5000	0.0086032
334.4000	0.00856583
334.3000	0.00852822
334.2000	0.00845089
334.1000	0.00833427
334.0000	0.00829578
333.9000	0.00825696
333.8000	0.00821984
333.7000	0.00821867
333.6000	0.00818028
333.5000	0.00806569
333.4000	0.00802698
333.3000	0.00799
333.2000	0.00795259
333.1000	0.00783779
333.0000	0.00779839
332.9000	0.00775719
332.8000	0.00775624
332.7000	0.00771772
332.6000	0.00767764
332.5000	0.00775463
332.4000	0.00767845
332.3000	0.0076398
332.2000	0.00763913
332.1000	0.00767709
332.0000	0.00760066
331.9000	0.00756192
331.8000	0.00752375
331.7000	0.00744767
331.6000	0.00744797
331.5000	0.0073708
331.4000	0.00725713
331.3000	0.00725595
331.2000	0.00729375
331.1000	0.00733203
331.0000	0.00733202
330.9000	0.00733256
330.8000	0.00729567
330.7000	0.00721853
330.6000	0.00717818
330.5000	0.0071392
330.4000	0.00698489
330.3000	0.00706153
330.2000	0.00698546
330.1000	0.00690773
330.0000	0.00683001
329.9000	0.00686794
329.8000	0.00679298
329.7000	0.00679568
329.6000	0.00683457
329.5000	0.00683425
329.4000	0.00671866
329.3000	0.00667953
329.2000	0.00667895
329.1000	0.00671658
329.0000	0.00675552
328.9000	0.0067172
328.8000	0.00675501
328.7000	0.00671788
328.6000	0.00671745
328.5000	0.00675529
328.4000	0.00671618
328.3000	0.0067557
328.2000	0.00683124
328.1000	0.00675637
328.0000	0.0067187
327.9000	0.00664184
327.8000	0.00664224
327.7000	0.00660302
327.6000	0.00660095
327.5000	0.00656178
327.4000	0.00652279
327.3000	0.00648372
327.2000	0.00652099
327.1000	0.00644309
327.0000	0.00644326
326.9000	0.00648224
326.8000	0.0065199
326.7000	0.00640422
326.6000	0.00640297
326.5000	0.00647925
326.4000	0.00644189
326.3000	0.00644033
326.2000	0.00651709
326.1000	0.00651711
326.0000	0.00644055
325.9000	0.00644116
325.8000	0.0064412
325.7000	0.00640081
325.6000	0.00636258
325.5000	0.00644053
325.4000	0.00643935
325.3000	0.00647836
325.2000	0.00651738
325.1000	0.00651695
325.0000	0.00647744
324.9000	0.00651303
324.8000	0.00651125
324.7000	0.00654826
324.6000	0.00643318
324.5000	0.00643324
324.4000	0.00635642
324.3000	0.00635596
324.2000	0.00643414
324.1000	0.00639664
324.0000	0.00639592
323.9000	0.00635733
323.8000	0.00631571
323.7000	0.006353
323.6000	0.00631302
323.5000	0.00642847
323.4000	0.00646572
323.3000	0.00642792
323.2000	0.00642493
323.1000	0.00642468
323.0000	0.006424
322.9000	0.00630947
322.8000	0.00630795
322.7000	0.00626971
322.6000	0.0062693
322.5000	0.00626888
322.4000	0.0061521
322.3000	0.00607451
322.2000	0.00607298
322.1000	0.00592136
322.0000	0.0058446
321.9000	0.00580594
321.8000	0.00580485
321.7000	0.00580377
321.6000	0.00572776
321.5000	0.00572707
321.4000	0.00568847
321.3000	0.00568757
321.2000	0.00572407
321.1000	0.00568545
321.0000	0.00560876
320.9000	0.00564537
320.8000	0.00560674
320.7000	0.00560549
320.6000	0.00556741
320.5000	0.00541594
320.4000	0.00537738
320.3000	0.00530112
320.2000	0.00529984
320.1000	0.00518572
320.0000	0.00507222
319.9000	0.00499569
319.8000	0.00491895
319.7000	0.0049922
319.6000	0.00502859
319.5000	0.00491479
319.4000	0.00487594
319.3000	0.00476346
319.2000	0.0048001
319.1000	0.00476108
319.0000	0.00468556
318.9000	0.00468392
318.8000	0.00468303
318.7000	0.00464472
318.6000	0.00456875
318.5000	0.00453045
318.4000	0.00449147
318.3000	0.00445326
318.2000	0.00452666
318.1000	0.00452613
318.0000	0.00452544
317.9000	0.00452522
317.8000	0.00452408
317.7000	0.00448519
317.6000	0.00448495
317.5000	0.00452121
317.4000	0.00455683
317.3000	0.00463066
317.2000	0.00459283
317.1000	0.00459245
317.0000	0.0045544
316.9000	0.00459114
316.8000	0.00459013
316.7000	0.00466423
316.6000	0.00466341
316.5000	0.00466231
316.4000	0.00462404
316.3000	0.00469779
316.2000	0.00469721
316.1000	0.00473272
316.0000	0.00469464
315.9000	0.004657
315.8000	0.00473052
315.7000	0.00484242
315.6000	0.00484169
315.5000	0.00484087
315.4000	0.00487727
315.3000	0.00483976
315.2000	0.00483946
315.1000	0.00483873
315.0000	0.00480158
314.9000	0.0046892
314.8000	0.00461463
314.7000	0.0046138
314.6000	0.00457643
314.5000	0.00453894
314.4000	0.004501
314.3000	0.00446404
314.2000	0.00442722
314.1000	0.00438946
314.0000	0.00435172
313.9000	0.00435083
313.8000	0.00438753
313.7000	0.00438669
313.6000	0.00446111
313.5000	0.00438719
313.4000	0.00435045
313.3000	0.00431366
313.2000	0.00427658
313.1000	0.00423931
313.0000	0.00412785
312.9000	0.00420253
312.8000	0.00423889
312.7000	0.00431313
312.6000	0.0042388
312.5000	0.00408977
312.4000	0.00405302
312.3000	0.00405327
312.2000	0.00401682
312.1000	0.00405386
312.0000	0.0041281
311.9000	0.00397902
311.8000	0.00394116
311.7000	0.00394148
311.6000	0.0039411
311.5000	0.00386698
311.4000	0.00383003
311.3000	0.00383035
311.2000	0.00383036
311.1000	0.00383016
311.0000	0.00386715
310.9000	0.00386755
310.8000	0.00386804
310.7000	0.00383133
310.6000	0.00375708
310.5000	0.00368332
310.4000	0.00360852
310.3000	0.00360779
310.2000	0.00364532
310.1000	0.00360887
310.0000	0.00357215
309.9000	0.00353547
309.8000	0.00353532
309.7000	0.00342365
309.6000	0.00346169
309.5000	0.00342463
309.4000	0.00346187
309.3000	0.00353645
309.2000	0.00353622
309.1000	0.00349918
309.0000	0.00349877
308.9000	0.00346159
308.8000	0.00338741
308.7000	0.00346241
308.6000	0.00342639
308.5000	0.00342735
308.4000	0.00339048
308.3000	0.00342732
308.2000	0.00346459
308.1000	0.00346451
308.0000	0.00342754
307.9000	0.00339058
307.8000	0.00331641
307.7000	0.00331638
307.6000	0.00335338
307.5000	0.00331629
307.4000	0.00327963
307.3000	0.00335424
307.2000	0.00328026
307.1000	0.00331845
307.0000	0.00328076
306.9000	0.00328043
306.8000	0.00331768
306.7000	0.00331779
306.6000	0.00335515
306.5000	0.00335521
306.4000	0.00328055
306.3000	0.00320609
306.2000	0.00316869
306.1000	0.0031317
306.0000	0.00309496
305.9000	0.00309523
305.8000	0.00313261
305.7000	0.00313278
305.6000	0.00309601
305.5000	0.0030963
305.4000	0.00313308
305.3000	0.00313203
305.2000	0.00316915
305.1000	0.00316946
305.0000	0.00320676
304.9000	0.00320707
304.8000	0.00324481
304.7000	0.0032082
304.6000	0.00320812
304.5000	0.00313356
304.4000	0.0030962
304.3000	0.00313374
304.2000	0.00313345
304.1000	0.00313368
304.0000	0.00317115
303.9000	0.00313359
303.8000	0.00309661
303.7000	0.00305925
303.6000	0.00305933
303.5000	0.00309673
303.4000	0.00309686
303.3000	0.00309714
303.2000	0.00313488
303.1000	0.00321012
303.0000	0.00317363
302.9000	0.00317348
302.8000	0.00324816
302.7000	0.00321071
302.6000	0.00317326
302.5000	0.00313538
302.4000	0.00309739
302.3000	0.0030973
302.2000	0.00306048
302.1000	0.00309805
302.0000	0.00306076
301.9000	0.00306093
301.8000	0.00302338
301.7000	0.00302323
301.6000	0.00302311
301.5000	0.00302283
301.4000	0.0030601
301.3000	0.0030603
301.2000	0.00306036
301.1000	0.00306007
301.0000	0.00309656
300.9000	0.00302179
300.8000	0.00302204
300.7000	0.00294756
300.6000	0.00291054
300.5000	0.00287316
300.4000	0.00279853
300.3000	0.00279816
300.2000	0.00272377
300.1000	0.00272376
300.0000	0.00264889
