TITLE	13.2_NP_0
DATA TYPE	ULTRAVIOLET SPECTRUM
ORIGIN	JASCO
OWNER	
DATE	21/04/29
TIME	12:06:28
SPECTROMETER/DATA SYSTEM	
RESOLUTION	
DELTAX	-0.1
XUNITS	NANOMETERS
YUNITS	TRANSMITTANCE
FIRSTX	  850.0000
LASTX	  300.0000
NPOINTS	    5501
FIRSTY	    81.06449
MAXY	    83.00379
MINY	     0.00208
XYDATA
850.0000	81.0645
849.9000	81.0913
849.8000	81.1283
849.7000	81.1532
849.6000	81.1779
849.5000	81.1911
849.4000	81.2103
849.3000	81.2131
849.2000	81.2285
849.1000	81.2373
849.0000	81.2404
848.9000	81.2298
848.8000	81.2206
848.7000	81.2095
848.6000	81.1964
848.5000	81.1695
848.4000	81.1569
848.3000	81.1303
848.2000	81.104
848.1000	81.0626
848.0000	81.0263
847.9000	80.9746
847.8000	80.9383
847.7000	80.8984
847.6000	80.8476
847.5000	80.7948
847.4000	80.7455
847.3000	80.6757
847.2000	80.6118
847.1000	80.5386
847.0000	80.4735
846.9000	80.3923
846.8000	80.3159
846.7000	80.2374
846.6000	80.1561
846.5000	80.0737
846.4000	79.9904
846.3000	79.8973
846.2000	79.8046
846.1000	79.703
846.0000	79.6011
845.9000	79.489
845.8000	79.3815
845.7000	79.2759
845.6000	79.164
845.5000	79.0506
845.4000	78.9356
845.3000	78.8154
845.2000	78.6937
845.1000	78.5683
845.0000	78.4503
844.9000	78.3234
844.8000	78.1911
844.7000	78.0644
844.6000	77.9313
844.5000	77.7894
844.4000	77.6569
844.3000	77.5194
844.2000	77.3807
844.1000	77.2421
844.0000	77.1068
843.9000	76.9638
843.8000	76.8256
843.7000	76.6837
843.6000	76.5429
843.5000	76.4021
843.4000	76.2535
843.3000	76.0989
843.2000	75.9535
843.1000	75.8012
843.0000	75.6561
842.9000	75.5129
842.8000	75.3699
842.7000	75.2219
842.6000	75.082
842.5000	74.934
842.4000	74.7956
842.3000	74.648
842.2000	74.5089
842.1000	74.3641
842.0000	74.2214
841.9000	74.0734
841.8000	73.9302
841.7000	73.7935
841.6000	73.6625
841.5000	73.528
841.4000	73.3951
841.3000	73.2568
841.2000	73.1281
841.1000	72.9901
841.0000	72.8593
840.9000	72.7251
840.8000	72.5959
840.7000	72.4729
840.6000	72.3409
840.5000	72.213
840.4000	72.0943
840.3000	71.9709
840.2000	71.8561
840.1000	71.7397
840.0000	71.6302
839.9000	71.5164
839.8000	71.4045
839.7000	71.2888
839.6000	71.1831
839.5000	71.07
839.4000	70.9661
839.3000	70.8607
839.2000	70.7628
839.1000	70.6616
839.0000	70.5682
838.9000	70.48
838.8000	70.3915
838.7000	70.3072
838.6000	70.2162
838.5000	70.134
838.4000	70.055
838.3000	69.9679
838.2000	69.8941
838.1000	69.8224
838.0000	69.751
837.9000	69.6799
837.8000	69.6171
837.7000	69.5594
837.6000	69.5067
837.5000	69.4525
837.4000	69.4056
837.3000	69.3607
837.2000	69.3143
837.1000	69.2696
837.0000	69.232
836.9000	69.1926
836.8000	69.1558
836.7000	69.123
836.6000	69.097
836.5000	69.0705
836.4000	69.0495
836.3000	69.0339
836.2000	69.0196
836.1000	69.0065
836.0000	69.0027
835.9000	68.9969
835.8000	68.9905
835.7000	68.9852
835.6000	68.9846
835.5000	68.989
835.4000	69.0047
835.3000	69.0112
835.2000	69.03
835.1000	69.0521
835.0000	69.0727
834.9000	69.0964
834.8000	69.1212
834.7000	69.1515
834.6000	69.1862
834.5000	69.2187
834.4000	69.257
834.3000	69.2925
834.2000	69.3423
834.1000	69.3857
834.0000	69.437
833.9000	69.4892
833.8000	69.5425
833.7000	69.6032
833.6000	69.669
833.5000	69.7387
833.4000	69.8092
833.3000	69.8794
833.2000	69.9528
833.1000	70.0298
833.0000	70.1129
832.9000	70.1974
832.8000	70.2779
832.7000	70.3658
832.6000	70.4599
832.5000	70.5545
832.4000	70.6558
832.3000	70.7527
832.2000	70.8543
832.1000	70.96
832.0000	71.0649
831.9000	71.1721
831.8000	71.2845
831.7000	71.3959
831.6000	71.5175
831.5000	71.6376
831.4000	71.7611
831.3000	71.8854
831.2000	72.011
831.1000	72.1358
831.0000	72.2592
830.9000	72.3891
830.8000	72.5175
830.7000	72.6525
830.6000	72.7906
830.5000	72.929
830.4000	73.0725
830.3000	73.2148
830.2000	73.3538
830.1000	73.5007
830.0000	73.649
829.9000	73.795
829.8000	73.9427
829.7000	74.0891
829.6000	74.2396
829.5000	74.3941
829.4000	74.551
829.3000	74.7028
829.2000	74.8593
829.1000	75.0123
829.0000	75.1713
828.9000	75.3217
828.8000	75.4777
828.7000	75.635
828.6000	75.7923
828.5000	75.9537
828.4000	76.1108
828.3000	76.2691
828.2000	76.4225
828.1000	76.5745
828.0000	76.726
827.9000	76.8818
827.8000	77.0366
827.7000	77.1903
827.6000	77.3457
827.5000	77.499
827.4000	77.6558
827.3000	77.8067
827.2000	77.95
827.1000	78.0956
827.0000	78.2475
826.9000	78.3892
826.8000	78.5352
826.7000	78.6776
826.6000	78.8142
826.5000	78.9536
826.4000	79.0932
826.3000	79.2312
826.2000	79.358
826.1000	79.4897
826.0000	79.6175
825.9000	79.7455
825.8000	79.8716
825.7000	79.9968
825.6000	80.1097
825.5000	80.2181
825.4000	80.3297
825.3000	80.433
825.2000	80.5349
825.1000	80.6377
825.0000	80.7339
824.9000	80.8292
824.8000	80.9207
824.7000	81.0075
824.6000	81.0897
824.5000	81.1635
824.4000	81.24
824.3000	81.3124
824.2000	81.376
824.1000	81.4385
824.0000	81.5026
823.9000	81.5583
823.8000	81.6055
823.7000	81.6609
823.6000	81.7005
823.5000	81.7446
823.4000	81.7854
823.3000	81.8222
823.2000	81.8506
823.1000	81.8689
823.0000	81.8917
822.9000	81.9089
822.8000	81.9231
822.7000	81.926
822.6000	81.9189
822.5000	81.9194
822.4000	81.9214
822.3000	81.9107
822.2000	81.8981
822.1000	81.8806
822.0000	81.8599
821.9000	81.834
821.8000	81.8094
821.7000	81.7731
821.6000	81.7408
821.5000	81.7009
821.4000	81.659
821.3000	81.6174
821.2000	81.5701
821.1000	81.5108
821.0000	81.4527
820.9000	81.3845
820.8000	81.315
820.7000	81.2431
820.6000	81.1747
820.5000	81.0981
820.4000	81.0225
820.3000	80.934
820.2000	80.8448
820.1000	80.7452
820.0000	80.6469
819.9000	80.546
819.8000	80.4435
819.7000	80.3335
819.6000	80.2224
819.5000	80.1042
819.4000	79.9954
819.3000	79.8701
819.2000	79.7468
819.1000	79.6195
819.0000	79.4949
818.9000	79.3684
818.8000	79.236
818.7000	79.1065
818.6000	78.9693
818.5000	78.832
818.4000	78.6925
818.3000	78.55
818.2000	78.4089
818.1000	78.2588
818.0000	78.1086
817.9000	77.9599
817.8000	77.8077
817.7000	77.6602
817.6000	77.5105
817.5000	77.3579
817.4000	77.1989
817.3000	77.0369
817.2000	76.8802
817.1000	76.7221
817.0000	76.5655
816.9000	76.4116
816.8000	76.2544
816.7000	76.0958
816.6000	75.9398
816.5000	75.7858
816.4000	75.6293
816.3000	75.4787
816.2000	75.3201
816.1000	75.1706
816.0000	75.0178
815.9000	74.8689
815.8000	74.7152
815.7000	74.5618
815.6000	74.4142
815.5000	74.2558
815.4000	74.1057
815.3000	73.9607
815.2000	73.8141
815.1000	73.6661
815.0000	73.5225
814.9000	73.3847
814.8000	73.2467
814.7000	73.1076
814.6000	72.9753
814.5000	72.8429
814.4000	72.7058
814.3000	72.5747
814.2000	72.4476
814.1000	72.3246
814.0000	72.2049
813.9000	72.0812
813.8000	71.9627
813.7000	71.8429
813.6000	71.7344
813.5000	71.6234
813.4000	71.5139
813.3000	71.4028
813.2000	71.2972
813.1000	71.1947
813.0000	71.0978
812.9000	70.9975
812.8000	70.9015
812.7000	70.8128
812.6000	70.726
812.5000	70.639
812.4000	70.5564
812.3000	70.4803
812.2000	70.4119
812.1000	70.3412
812.0000	70.2726
811.9000	70.2088
811.8000	70.1457
811.7000	70.087
811.6000	70.0301
811.5000	69.9778
811.4000	69.9308
811.3000	69.8812
811.2000	69.843
811.1000	69.7995
811.0000	69.7677
810.9000	69.7281
810.8000	69.6932
810.7000	69.6661
810.6000	69.6421
810.5000	69.6265
810.4000	69.6043
810.3000	69.5932
810.2000	69.5829
810.1000	69.5808
810.0000	69.5803
809.9000	69.5871
809.8000	69.5904
809.7000	69.6024
809.6000	69.6187
809.5000	69.6392
809.4000	69.6581
809.3000	69.6847
809.2000	69.7103
809.1000	69.7397
809.0000	69.7667
808.9000	69.7995
808.8000	69.8428
808.7000	69.8875
808.6000	69.934
808.5000	69.9793
808.4000	70.0328
808.3000	70.0875
808.2000	70.145
808.1000	70.2068
808.0000	70.2747
807.9000	70.3516
807.8000	70.4237
807.7000	70.5059
807.6000	70.59
807.5000	70.6718
807.4000	70.7597
807.3000	70.8491
807.2000	70.9425
807.1000	71.0402
807.0000	71.1373
806.9000	71.2388
806.8000	71.3416
806.7000	71.4459
806.6000	71.5597
806.5000	71.6691
806.4000	71.7809
806.3000	71.8934
806.2000	72.011
806.1000	72.1369
806.0000	72.2596
805.9000	72.3877
805.8000	72.5215
805.7000	72.6552
805.6000	72.7896
805.5000	72.9267
805.4000	73.0693
805.3000	73.2119
805.2000	73.3516
805.1000	73.4996
805.0000	73.6433
804.9000	73.7959
804.8000	73.9458
804.7000	74.0931
804.6000	74.2499
804.5000	74.4045
804.4000	74.5548
804.3000	74.7145
804.2000	74.8702
804.1000	75.025
804.0000	75.1869
803.9000	75.346
803.8000	75.5038
803.7000	75.6642
803.6000	75.8283
803.5000	75.9899
803.4000	76.1512
803.3000	76.3181
803.2000	76.4814
803.1000	76.6441
803.0000	76.81
802.9000	76.9679
802.8000	77.1309
802.7000	77.2886
802.6000	77.4471
802.5000	77.6077
802.4000	77.7629
802.3000	77.9175
802.2000	78.0683
802.1000	78.2199
802.0000	78.3786
801.9000	78.5299
801.8000	78.6847
801.7000	78.8313
801.6000	78.9751
801.5000	79.1203
801.4000	79.2605
801.3000	79.398
801.2000	79.5367
801.1000	79.6716
801.0000	79.8111
800.9000	79.9447
800.8000	80.0757
800.7000	80.1959
800.6000	80.3252
800.5000	80.4429
800.4000	80.5613
800.3000	80.6674
800.2000	80.7767
800.1000	80.8802
800.0000	80.9826
799.9000	81.078
799.8000	81.1678
799.7000	81.2586
799.6000	81.3461
799.5000	81.4288
799.4000	81.5099
799.3000	81.5827
799.2000	81.6496
799.1000	81.7141
799.0000	81.7765
798.9000	81.8459
798.8000	81.8952
798.7000	81.9387
798.6000	81.9756
798.5000	82.0136
798.4000	82.0495
798.3000	82.0747
798.2000	82.0945
798.1000	82.1194
798.0000	82.1341
797.9000	82.1413
797.8000	82.1366
797.7000	82.1319
797.6000	82.1208
797.5000	82.1131
797.4000	82.0927
797.3000	82.071
797.2000	82.0383
797.1000	82.0132
797.0000	81.9728
796.9000	81.9314
796.8000	81.8873
796.7000	81.8402
796.6000	81.787
796.5000	81.7268
796.4000	81.6633
796.3000	81.5965
796.2000	81.5168
796.1000	81.4414
796.0000	81.3625
795.9000	81.2797
795.8000	81.1883
795.7000	81.0854
795.6000	80.99
795.5000	80.8916
795.4000	80.795
795.3000	80.6783
795.2000	80.568
795.1000	80.4557
795.0000	80.3402
794.9000	80.2129
794.8000	80.0868
794.7000	79.9624
794.6000	79.8351
794.5000	79.6996
794.4000	79.5681
794.3000	79.43
794.2000	79.2893
794.1000	79.1505
794.0000	79.0108
793.9000	78.864
793.8000	78.7211
793.7000	78.5725
793.6000	78.4172
793.5000	78.2591
793.4000	78.113
793.3000	77.9591
793.2000	77.7976
793.1000	77.6369
793.0000	77.4851
792.9000	77.3205
792.8000	77.1651
792.7000	77.0069
792.6000	76.8483
792.5000	76.6852
792.4000	76.5254
792.3000	76.3649
792.2000	76.197
792.1000	76.0433
792.0000	75.878
791.9000	75.7197
791.8000	75.557
791.7000	75.3997
791.6000	75.2412
791.5000	75.0806
791.4000	74.9297
791.3000	74.7746
791.2000	74.6157
791.1000	74.4618
791.0000	74.3111
790.9000	74.1598
790.8000	74.0097
790.7000	73.8583
790.6000	73.7102
790.5000	73.5604
790.4000	73.4201
790.3000	73.2817
790.2000	73.1345
790.1000	72.9977
790.0000	72.8675
789.9000	72.7362
789.8000	72.6016
789.7000	72.4746
789.6000	72.3482
789.5000	72.2254
789.4000	72.1087
789.3000	71.992
789.2000	71.8803
789.1000	71.7661
789.0000	71.6632
788.9000	71.5587
788.8000	71.4615
788.7000	71.3593
788.6000	71.2645
788.5000	71.1699
788.4000	71.0822
788.3000	70.9967
788.2000	70.9098
788.1000	70.8349
788.0000	70.7618
787.9000	70.6886
787.8000	70.623
787.7000	70.5562
787.6000	70.4973
787.5000	70.4452
787.4000	70.3944
787.3000	70.3507
787.2000	70.3083
787.1000	70.2726
787.0000	70.2394
786.9000	70.2025
786.8000	70.1712
786.7000	70.1482
786.6000	70.1298
786.5000	70.1158
786.4000	70.1029
786.3000	70.0901
786.2000	70.0855
786.1000	70.0877
786.0000	70.0881
785.9000	70.0971
785.8000	70.1059
785.7000	70.1201
785.6000	70.1393
785.5000	70.1639
785.4000	70.1954
785.3000	70.226
785.2000	70.2642
785.1000	70.3045
785.0000	70.3461
784.9000	70.3893
784.8000	70.4408
784.7000	70.4944
784.6000	70.5555
784.5000	70.6141
784.4000	70.676
784.3000	70.7431
784.2000	70.8148
784.1000	70.8875
784.0000	70.9674
783.9000	71.0464
783.8000	71.1348
783.7000	71.2271
783.6000	71.3252
783.5000	71.4238
783.4000	71.5274
783.3000	71.6373
783.2000	71.7436
783.1000	71.8556
783.0000	71.9682
782.9000	72.0823
782.8000	72.2043
782.7000	72.3239
782.6000	72.4482
782.5000	72.5738
782.4000	72.706
782.3000	72.8402
782.2000	72.9716
782.1000	73.1107
782.0000	73.2479
781.9000	73.3912
781.8000	73.5417
781.7000	73.6872
781.6000	73.8366
781.5000	73.9883
781.4000	74.1366
781.3000	74.2925
781.2000	74.4492
781.1000	74.6042
781.0000	74.7655
780.9000	74.9316
780.8000	75.0962
780.7000	75.2598
780.6000	75.4185
780.5000	75.5842
780.4000	75.753
780.3000	75.917
780.2000	76.0818
780.1000	76.2428
780.0000	76.4106
779.9000	76.5782
779.8000	76.7446
779.7000	76.91
779.6000	77.0741
779.5000	77.241
779.4000	77.4124
779.3000	77.5806
779.2000	77.7432
779.1000	77.9062
779.0000	78.071
778.9000	78.2272
778.8000	78.3874
778.7000	78.5448
778.6000	78.7004
778.5000	78.8574
778.4000	79.0127
778.3000	79.1597
778.2000	79.311
778.1000	79.4625
778.0000	79.6097
777.9000	79.7576
777.8000	79.8959
777.7000	80.026
777.6000	80.1584
777.5000	80.2889
777.4000	80.4199
777.3000	80.5403
777.2000	80.6532
777.1000	80.7688
777.0000	80.8826
776.9000	80.9923
776.8000	81.0984
776.7000	81.194
776.6000	81.2896
776.5000	81.3868
776.4000	81.4791
776.3000	81.5677
776.2000	81.6464
776.1000	81.7234
776.0000	81.7945
775.9000	81.8591
775.8000	81.9204
775.7000	81.9833
775.6000	82.039
775.5000	82.0862
775.4000	82.1277
775.3000	82.17
775.2000	82.2007
775.1000	82.2283
775.0000	82.2521
774.9000	82.2638
774.8000	82.2753
774.7000	82.2791
774.6000	82.28
774.5000	82.2781
774.4000	82.2656
774.3000	82.2503
774.2000	82.2308
774.1000	82.2105
774.0000	82.188
773.9000	82.1552
773.8000	82.1169
773.7000	82.0706
773.6000	82.0197
773.5000	81.9725
773.4000	81.9144
773.3000	81.8496
773.2000	81.7803
773.1000	81.7075
773.0000	81.6288
772.9000	81.5445
772.8000	81.4582
772.7000	81.3694
772.6000	81.2799
772.5000	81.1806
772.4000	81.0792
772.3000	80.9764
772.2000	80.8701
772.1000	80.7532
772.0000	80.6382
771.9000	80.5189
771.8000	80.3949
771.7000	80.2696
771.6000	80.141
771.5000	80.0069
771.4000	79.8719
771.3000	79.7306
771.2000	79.5955
771.1000	79.4522
771.0000	79.3085
770.9000	79.1584
770.8000	79.0089
770.7000	78.8567
770.6000	78.7056
770.5000	78.5491
770.4000	78.3917
770.3000	78.2328
770.2000	78.0765
770.1000	77.9112
770.0000	77.7509
769.9000	77.5852
769.8000	77.4244
769.7000	77.2589
769.6000	77.0946
769.5000	76.9289
769.4000	76.765
769.3000	76.6003
769.2000	76.4319
769.1000	76.2668
769.0000	76.0987
768.9000	75.9354
768.8000	75.772
768.7000	75.6136
768.6000	75.4531
768.5000	75.2903
768.4000	75.133
768.3000	74.9768
768.2000	74.8187
768.1000	74.6647
768.0000	74.507
767.9000	74.3535
767.8000	74.2057
767.7000	74.0588
767.6000	73.9124
767.5000	73.7677
767.4000	73.6259
767.3000	73.485
767.2000	73.3529
767.1000	73.218
767.0000	73.089
766.9000	72.9624
766.8000	72.8384
766.7000	72.7156
766.6000	72.5929
766.5000	72.4782
766.4000	72.363
766.3000	72.2513
766.2000	72.1406
766.1000	72.0361
766.0000	71.9394
765.9000	71.8369
765.8000	71.7424
765.7000	71.6489
765.6000	71.5615
765.5000	71.478
765.4000	71.3987
765.3000	71.3235
765.2000	71.2549
765.1000	71.1859
765.0000	71.1282
764.9000	71.0712
764.8000	71.0185
764.7000	70.971
764.6000	70.9207
764.5000	70.8765
764.4000	70.8374
764.3000	70.8025
764.2000	70.7722
764.1000	70.7496
764.0000	70.7247
763.9000	70.7066
763.8000	70.6903
763.7000	70.6823
763.6000	70.6745
763.5000	70.6772
763.4000	70.6839
763.3000	70.6924
763.2000	70.7071
763.1000	70.7218
763.0000	70.7458
762.9000	70.7703
762.8000	70.8005
762.7000	70.8375
762.6000	70.8801
762.5000	70.9274
762.4000	70.9765
762.3000	71.0283
762.2000	71.0857
762.1000	71.1522
762.0000	71.2097
761.9000	71.2793
761.8000	71.351
761.7000	71.4282
761.6000	71.5106
761.5000	71.5932
761.4000	71.6831
761.3000	71.7747
761.2000	71.8697
761.1000	71.9707
761.0000	72.0741
760.9000	72.1824
760.8000	72.295
760.7000	72.4096
760.6000	72.531
760.5000	72.6527
760.4000	72.7794
760.3000	72.903
760.2000	73.0365
760.1000	73.1698
760.0000	73.31
759.9000	73.4561
759.8000	73.5981
759.7000	73.7415
759.6000	73.8871
759.5000	74.033
759.4000	74.186
759.3000	74.3382
759.2000	74.4946
759.1000	74.6535
759.0000	74.812
758.9000	74.969
758.8000	75.1329
758.7000	75.2958
758.6000	75.4628
758.5000	75.6271
758.4000	75.7944
758.3000	75.9661
758.2000	76.1361
758.1000	76.3097
758.0000	76.4808
757.9000	76.6512
757.8000	76.8238
757.7000	76.991
757.6000	77.1654
757.5000	77.3385
757.4000	77.5077
757.3000	77.6796
757.2000	77.8463
757.1000	78.021
757.0000	78.1865
756.9000	78.3513
756.8000	78.5165
756.7000	78.6783
756.6000	78.8396
756.5000	79.0043
756.4000	79.1629
756.3000	79.3231
756.2000	79.4777
756.1000	79.6292
756.0000	79.7819
755.9000	79.9279
755.8000	80.0766
755.7000	80.222
755.6000	80.3644
755.5000	80.499
755.4000	80.6274
755.3000	80.755
755.2000	80.8781
755.1000	80.9973
755.0000	81.1147
754.9000	81.2279
754.8000	81.3374
754.7000	81.4412
754.6000	81.5415
754.5000	81.6395
754.4000	81.7271
754.3000	81.8102
754.2000	81.8934
754.1000	81.9669
754.0000	82.0431
753.9000	82.104
753.8000	82.1659
753.7000	82.2228
753.6000	82.2743
753.5000	82.3136
753.4000	82.3567
753.3000	82.3879
753.2000	82.4164
753.1000	82.4414
753.0000	82.4543
752.9000	82.4662
752.8000	82.4686
752.7000	82.4634
752.6000	82.4567
752.5000	82.4397
752.4000	82.423
752.3000	82.401
752.2000	82.375
752.1000	82.341
752.0000	82.3005
751.9000	82.2543
751.8000	82.2066
751.7000	82.1473
751.6000	82.0906
751.5000	82.0243
751.4000	81.9488
751.3000	81.8728
751.2000	81.7923
751.1000	81.7058
751.0000	81.6084
750.9000	81.5105
750.8000	81.4078
750.7000	81.3028
750.6000	81.1941
750.5000	81.0798
750.4000	80.9595
750.3000	80.8392
750.2000	80.7066
750.1000	80.5779
750.0000	80.4466
749.9000	80.3081
749.8000	80.1747
749.7000	80.0308
749.6000	79.8901
749.5000	79.7453
749.4000	79.593
749.3000	79.441
749.2000	79.2857
749.1000	79.1289
749.0000	78.9687
748.9000	78.806
748.8000	78.6482
748.7000	78.4831
748.6000	78.3131
748.5000	78.1467
748.4000	77.9743
748.3000	77.8066
748.2000	77.6406
748.1000	77.4674
748.0000	77.296
747.9000	77.126
747.8000	76.9593
747.7000	76.7898
747.6000	76.6159
747.5000	76.4474
747.4000	76.2729
747.3000	76.1005
747.2000	75.9323
747.1000	75.7665
747.0000	75.6027
746.9000	75.4364
746.8000	75.2762
746.7000	75.1132
746.6000	74.9522
746.5000	74.7962
746.4000	74.6396
746.3000	74.4846
746.2000	74.3328
746.1000	74.185
746.0000	74.0383
745.9000	73.8975
745.8000	73.7552
745.7000	73.6181
745.6000	73.479
745.5000	73.3462
745.4000	73.2198
745.3000	73.0924
745.2000	72.9686
745.1000	72.8483
745.0000	72.7362
744.9000	72.6274
744.8000	72.5226
744.7000	72.4197
744.6000	72.3192
744.5000	72.2234
744.4000	72.1369
744.3000	72.0476
744.2000	71.9677
744.1000	71.8931
744.0000	71.8181
743.9000	71.7474
743.8000	71.6841
743.7000	71.6254
743.6000	71.5666
743.5000	71.5169
743.4000	71.4716
743.3000	71.4287
743.2000	71.3897
743.1000	71.3584
743.0000	71.3299
742.9000	71.306
742.8000	71.2875
742.7000	71.2726
742.6000	71.2665
742.5000	71.2651
742.4000	71.2693
742.3000	71.2745
742.2000	71.287
742.1000	71.3069
742.0000	71.33
741.9000	71.354
741.8000	71.3842
741.7000	71.4186
741.6000	71.4567
741.5000	71.5011
741.4000	71.5513
741.3000	71.6075
741.2000	71.6675
741.1000	71.7312
741.0000	71.798
740.9000	71.8736
740.8000	71.9517
740.7000	72.0356
740.6000	72.1234
740.5000	72.2122
740.4000	72.3092
740.3000	72.4081
740.2000	72.5086
740.1000	72.6166
740.0000	72.6927
739.9000	72.804
739.8000	72.9226
739.7000	73.0449
739.6000	73.1707
739.5000	73.3012
739.4000	73.4335
739.3000	73.5712
739.2000	73.7107
739.1000	73.85
739.0000	73.9916
738.9000	74.1405
738.8000	74.2962
738.7000	74.4484
738.6000	74.6005
738.5000	74.7562
738.4000	74.9154
738.3000	75.0799
738.2000	75.2462
738.1000	75.4156
738.0000	75.5826
737.9000	75.7546
737.8000	75.9236
737.7000	76.0916
737.6000	76.264
737.5000	76.4358
737.4000	76.6117
737.3000	76.7903
737.2000	76.9644
737.1000	77.1405
737.0000	77.3153
736.9000	77.4888
736.8000	77.6647
736.7000	77.8424
736.6000	78.0174
736.5000	78.1913
736.4000	78.3646
736.3000	78.536
736.2000	78.706
736.1000	78.8748
736.0000	79.0403
735.9000	79.2049
735.8000	79.3714
735.7000	79.5314
735.6000	79.6846
735.5000	79.8424
735.4000	79.9969
735.3000	80.1446
735.2000	80.29
735.1000	80.431
735.0000	80.5648
734.9000	80.6969
734.8000	80.8312
734.7000	80.9574
734.6000	81.083
734.5000	81.2031
734.4000	81.3172
734.3000	81.4307
734.2000	81.5356
734.1000	81.6343
734.0000	81.7303
733.9000	81.8211
733.8000	81.9077
733.7000	81.99
733.6000	82.0662
733.5000	82.1366
733.4000	82.2018
733.3000	82.2602
733.2000	82.3131
733.1000	82.3634
733.0000	82.4062
732.9000	82.4424
732.8000	82.4721
732.7000	82.4983
732.6000	82.5147
732.5000	82.5251
732.4000	82.534
732.3000	82.5347
732.2000	82.5255
732.1000	82.5168
732.0000	82.5044
731.9000	82.4828
731.8000	82.4545
731.7000	82.4216
731.6000	82.3815
731.5000	82.337
731.4000	82.2867
731.3000	82.2312
731.2000	82.1704
731.1000	82.1037
731.0000	82.0318
730.9000	81.953
730.8000	81.8683
730.7000	81.7811
730.6000	81.687
730.5000	81.5916
730.4000	81.49
730.3000	81.3782
730.2000	81.2644
730.1000	81.1481
730.0000	81.0278
729.9000	80.9016
729.8000	80.7735
729.7000	80.6375
729.6000	80.5034
729.5000	80.3605
729.4000	80.2183
729.3000	80.0737
729.2000	79.9247
729.1000	79.771
729.0000	79.6249
728.9000	79.4656
728.8000	79.3081
728.7000	79.1438
728.6000	78.9826
728.5000	78.8182
728.4000	78.6503
728.3000	78.4831
728.2000	78.3106
728.1000	78.1401
728.0000	77.9711
727.9000	77.7958
727.8000	77.6252
727.7000	77.4552
727.6000	77.2855
727.5000	77.1164
727.4000	76.9498
727.3000	76.777
727.2000	76.6062
727.1000	76.4398
727.0000	76.2687
726.9000	76.101
726.8000	75.9355
726.7000	75.7696
726.6000	75.605
726.5000	75.4476
726.4000	75.2862
726.3000	75.1286
726.2000	74.9727
726.1000	74.8181
726.0000	74.665
725.9000	74.5172
725.8000	74.3686
725.7000	74.227
725.6000	74.0839
725.5000	73.9471
725.4000	73.8183
725.3000	73.6903
725.2000	73.5641
725.1000	73.4395
725.0000	73.3236
724.9000	73.2067
724.8000	73.0959
724.7000	72.9939
724.6000	72.8911
724.5000	72.7894
724.4000	72.697
724.3000	72.6043
724.2000	72.516
724.1000	72.4372
724.0000	72.3621
723.9000	72.2863
723.8000	72.2236
723.7000	72.1618
723.6000	72.1037
723.5000	72.0514
723.4000	72.0073
723.3000	71.9651
723.2000	71.9315
723.1000	71.9011
723.0000	71.8764
722.9000	71.8555
722.8000	71.8436
722.7000	71.8325
722.6000	71.8294
722.5000	71.8305
722.4000	71.8367
722.3000	71.8493
722.2000	71.8601
722.1000	71.8777
722.0000	71.904
721.9000	71.9369
721.8000	71.976
721.7000	72.0193
721.6000	72.0628
721.5000	72.1101
721.4000	72.1654
721.3000	72.2298
721.2000	72.2949
721.1000	72.3683
721.0000	72.444
720.9000	72.5233
720.8000	72.6088
720.7000	72.7037
720.6000	72.7996
720.5000	72.8992
720.4000	73.0017
720.3000	73.1136
720.2000	73.2245
720.1000	73.3419
720.0000	73.4599
719.9000	73.5894
719.8000	73.7137
719.7000	73.8463
719.6000	73.98
719.5000	74.1241
719.4000	74.2639
719.3000	74.4105
719.2000	74.5568
719.1000	74.7095
719.0000	74.8633
718.9000	75.0247
718.8000	75.1849
718.7000	75.3459
718.6000	75.5072
718.5000	75.6756
718.4000	75.8438
718.3000	76.0157
718.2000	76.1844
718.1000	76.3568
718.0000	76.5288
717.9000	76.7013
717.8000	76.8732
717.7000	77.0501
717.6000	77.2217
717.5000	77.3969
717.4000	77.5695
717.3000	77.7464
717.2000	77.9204
717.1000	78.0936
717.0000	78.2639
716.9000	78.4385
716.8000	78.6104
716.7000	78.7801
716.6000	78.9512
716.5000	79.1207
716.4000	79.285
716.3000	79.4464
716.2000	79.6054
716.1000	79.7674
716.0000	79.92
715.9000	80.0731
715.8000	80.2224
715.7000	80.3672
715.6000	80.5083
715.5000	80.6534
715.4000	80.7895
715.3000	80.9257
715.2000	81.0508
715.1000	81.1793
715.0000	81.2966
714.9000	81.4143
714.8000	81.5244
714.7000	81.63
714.6000	81.7267
714.5000	81.8276
714.4000	81.9183
714.3000	82.0076
714.2000	82.0829
714.1000	82.1622
714.0000	82.2298
713.9000	82.2944
713.8000	82.351
713.7000	82.4007
713.6000	82.4396
713.5000	82.4791
713.4000	82.5023
713.3000	82.5278
713.2000	82.5454
713.1000	82.5574
713.0000	82.5579
712.9000	82.5563
712.8000	82.5475
712.7000	82.5374
712.6000	82.5133
712.5000	82.489
712.4000	82.4507
712.3000	82.4102
712.2000	82.3563
712.1000	82.2994
712.0000	82.2364
711.9000	82.1756
711.8000	82.1012
711.7000	82.0252
711.6000	81.9373
711.5000	81.854
711.4000	81.7591
711.3000	81.6585
711.2000	81.5486
711.1000	81.4406
711.0000	81.324
710.9000	81.206
710.8000	81.0759
710.7000	80.947
710.6000	80.8066
710.5000	80.6724
710.4000	80.5304
710.3000	80.3865
710.2000	80.2372
710.1000	80.0893
710.0000	79.9276
709.9000	79.7734
709.8000	79.6109
709.7000	79.4522
709.6000	79.2828
709.5000	79.1166
709.4000	78.9445
709.3000	78.7788
709.2000	78.5998
709.1000	78.431
709.0000	78.2505
708.9000	78.0787
708.8000	77.8989
708.7000	77.7209
708.6000	77.5379
708.5000	77.3667
708.4000	77.1835
708.3000	77.0084
708.2000	76.8261
708.1000	76.652
708.0000	76.4706
707.9000	76.3015
707.8000	76.1247
707.7000	75.9543
707.6000	75.7799
707.5000	75.6181
707.4000	75.4499
707.3000	75.2906
707.2000	75.1215
707.1000	74.9685
707.0000	74.8089
706.9000	74.6597
706.8000	74.5052
706.7000	74.3629
706.6000	74.2139
706.5000	74.0763
706.4000	73.9349
706.3000	73.8078
706.2000	73.6758
706.1000	73.5546
706.0000	73.4327
705.9000	73.317
705.8000	73.2039
705.7000	73.1009
705.6000	72.9941
705.5000	72.902
705.4000	72.8094
705.3000	72.7222
705.2000	72.6363
705.1000	72.5638
705.0000	72.4887
704.9000	72.4274
704.8000	72.3657
704.7000	72.3095
704.6000	72.253
704.5000	72.2099
704.4000	72.1684
704.3000	72.1373
704.2000	72.1035
704.1000	72.0848
704.0000	72.0667
703.9000	72.0585
703.8000	72.05
703.7000	72.051
703.6000	72.0559
703.5000	72.0727
703.4000	72.0901
703.3000	72.1176
703.2000	72.1482
703.1000	72.1866
703.0000	72.2224
702.9000	72.2726
702.8000	72.3234
702.7000	72.3877
702.6000	72.4465
702.5000	72.5188
702.4000	72.5966
702.3000	72.6772
702.2000	72.7585
702.1000	72.8509
702.0000	72.9452
701.9000	73.049
701.8000	73.1549
701.7000	73.2653
701.6000	73.3786
701.5000	73.4981
701.4000	73.624
701.3000	73.757
701.2000	73.8889
701.1000	74.0264
701.0000	74.1697
700.9000	74.3107
700.8000	74.4619
700.7000	74.6098
700.6000	74.7655
700.5000	74.9253
700.4000	75.092
700.3000	75.2559
700.2000	75.424
700.1000	75.5917
700.0000	75.7632
699.9000	75.9273
699.8000	76.1096
699.7000	76.2766
699.6000	76.4601
699.5000	76.6312
699.4000	76.8227
699.3000	76.9976
699.2000	77.1829
699.1000	77.3569
699.0000	77.5471
698.9000	77.7204
698.8000	77.909
698.7000	78.0787
698.6000	78.27
698.5000	78.4352
698.4000	78.623
698.3000	78.7849
698.2000	78.9691
698.1000	79.1273
698.0000	79.3088
697.9000	79.4624
697.8000	79.64
697.7000	79.7888
697.6000	79.9582
697.5000	80.0958
697.4000	80.2641
697.3000	80.3938
697.2000	80.5455
697.1000	80.6649
697.0000	80.8167
696.9000	80.9273
696.8000	81.0724
696.7000	81.1747
696.6000	81.3073
696.5000	81.4015
696.4000	81.5251
696.3000	81.604
696.2000	81.7164
696.1000	81.7844
696.0000	81.8866
695.9000	81.9457
695.8000	82.0389
695.7000	82.0852
695.6000	82.1658
695.5000	82.1962
695.4000	82.264
695.3000	82.2864
695.2000	82.3428
695.1000	82.3563
695.0000	82.4003
694.9000	82.3926
694.8000	82.4258
694.7000	82.4086
694.6000	82.4252
694.5000	82.3973
694.4000	82.4074
694.3000	82.3675
694.2000	82.3638
694.1000	82.3107
694.0000	82.2983
693.9000	82.2334
693.8000	82.209
693.7000	82.1338
693.6000	82.0953
693.5000	82.0121
693.4000	81.9593
693.3000	81.8602
693.2000	81.8011
693.1000	81.6968
693.0000	81.6233
692.9000	81.5082
692.8000	81.43
692.7000	81.303
692.6000	81.2123
692.5000	81.0823
692.4000	80.9834
692.3000	80.8446
692.2000	80.7352
692.1000	80.5898
692.0000	80.4757
691.9000	80.3228
691.8000	80.2029
691.7000	80.0469
691.6000	79.9178
691.5000	79.7582
691.4000	79.6304
691.3000	79.4662
691.2000	79.3272
691.1000	79.1626
691.0000	79.018
690.9000	78.8512
690.8000	78.7079
690.7000	78.5378
690.6000	78.3894
690.5000	78.2215
690.4000	78.0735
690.3000	77.908
690.2000	77.7622
690.1000	77.6002
690.0000	77.4473
689.9000	77.2859
689.8000	77.1392
689.7000	76.9785
689.6000	76.8295
689.5000	76.6775
689.4000	76.5368
689.3000	76.3828
689.2000	76.2453
689.1000	76.1002
689.0000	75.9683
688.9000	75.8326
688.8000	75.7027
688.7000	75.5687
688.6000	75.445
688.5000	75.3231
688.4000	75.2078
688.3000	75.0897
688.2000	74.9779
688.1000	74.8701
688.0000	74.7663
687.9000	74.668
687.8000	74.5729
687.7000	74.4829
687.6000	74.3944
687.5000	74.3166
687.4000	74.2374
687.3000	74.1669
687.2000	74.0921
687.1000	74.0337
687.0000	73.9738
686.9000	73.9245
686.8000	73.878
686.7000	73.84
686.6000	73.8012
686.5000	73.7773
686.4000	73.7485
686.3000	73.7322
686.2000	73.7128
686.1000	73.7104
686.0000	73.7027
685.9000	73.7125
685.8000	73.7135
685.7000	73.7348
685.6000	73.7478
685.5000	73.7835
685.4000	73.8055
685.3000	73.8508
685.2000	73.8856
685.1000	73.9459
685.0000	73.9902
684.9000	74.0605
684.8000	74.1157
684.7000	74.1979
684.6000	74.2652
684.5000	74.3591
684.4000	74.4335
684.3000	74.5367
684.2000	74.6201
684.1000	74.7378
684.0000	74.837
683.9000	74.9622
683.8000	75.0619
683.7000	75.1981
683.6000	75.3091
683.5000	75.4567
683.4000	75.5743
683.3000	75.7302
683.2000	75.8573
683.1000	76.0241
683.0000	76.1542
682.9000	76.3267
682.8000	76.4634
682.7000	76.6431
682.6000	76.7829
682.5000	76.9671
682.4000	77.1142
682.3000	77.3038
682.2000	77.456
682.1000	77.6509
682.0000	77.8023
681.9000	77.9976
681.8000	78.1551
681.7000	78.352
681.6000	78.5132
681.5000	78.7102
681.4000	78.8652
681.3000	79.0602
681.2000	79.2195
681.1000	79.4141
681.0000	79.5718
680.9000	79.7613
680.8000	79.9148
680.7000	80.0983
680.6000	80.2517
680.5000	80.4314
680.4000	80.5781
680.3000	80.7475
680.2000	80.893
680.1000	81.0568
680.0000	81.1907
679.9000	81.3414
679.8000	81.4713
679.7000	81.6137
679.6000	81.7321
679.5000	81.8626
679.4000	81.9798
679.3000	82.0967
679.2000	82.2015
679.1000	82.3036
679.0000	82.3922
678.9000	82.4806
678.8000	82.562
678.7000	82.638
678.6000	82.7029
678.5000	82.7661
678.4000	82.8159
678.3000	82.8645
678.2000	82.906
678.1000	82.9376
678.0000	82.9651
677.9000	82.9841
677.8000	82.999
677.7000	83.0025
677.6000	83.0038
677.5000	82.9934
677.4000	82.9802
677.3000	82.9539
677.2000	82.9234
677.1000	82.8873
677.0000	82.8448
676.9000	82.7922
676.8000	82.7388
676.7000	82.6734
676.6000	82.6043
676.5000	82.5272
676.4000	82.4504
676.3000	82.3596
676.2000	82.2662
676.1000	82.1683
676.0000	82.0638
675.9000	81.9566
675.8000	81.8441
675.7000	81.7271
675.6000	81.6054
675.5000	81.4764
675.4000	81.3451
675.3000	81.2074
675.2000	81.0719
675.1000	80.9233
675.0000	80.7755
674.9000	80.6225
674.8000	80.4675
674.7000	80.3068
674.6000	80.144
674.5000	79.9812
674.4000	79.8151
674.3000	79.6444
674.2000	79.4722
674.1000	79.3003
674.0000	79.1285
673.9000	78.9499
673.8000	78.7718
673.7000	78.5937
673.6000	78.4163
673.5000	78.2374
673.4000	78.0601
673.3000	77.8819
673.2000	77.7049
673.1000	77.5269
673.0000	77.3519
672.9000	77.1757
672.8000	77.0016
672.7000	76.8256
672.6000	76.6567
672.5000	76.4838
672.4000	76.3179
672.3000	76.1551
672.2000	75.9963
672.1000	75.8376
672.0000	75.681
671.9000	75.5316
671.8000	75.3887
671.7000	75.247
671.6000	75.1087
671.5000	74.9738
671.4000	74.8432
671.3000	74.7154
671.2000	74.5949
671.1000	74.4796
671.0000	74.369
670.9000	74.2628
670.8000	74.1653
670.7000	74.0752
670.6000	73.9915
670.5000	73.9093
670.4000	73.8341
670.3000	73.7628
670.2000	73.7006
670.1000	73.6433
670.0000	73.5907
669.9000	73.5488
669.8000	73.509
669.7000	73.4732
669.6000	73.4491
669.5000	73.4315
669.4000	73.4195
669.3000	73.415
669.2000	73.4157
669.1000	73.4221
669.0000	73.4355
668.9000	73.4544
668.8000	73.4832
668.7000	73.5179
668.6000	73.5583
668.5000	73.6018
668.4000	73.6539
668.3000	73.7131
668.2000	73.7808
668.1000	73.8538
668.0000	73.932
667.9000	74.0172
667.8000	74.1092
667.7000	74.2056
667.6000	74.3059
667.5000	74.4102
667.4000	74.5174
667.3000	74.635
667.2000	74.7555
667.1000	74.8839
667.0000	75.0126
666.9000	75.149
666.8000	75.2894
666.7000	75.4346
666.6000	75.5862
666.5000	75.7442
666.4000	75.8993
666.3000	76.0618
666.2000	76.2236
666.1000	76.3898
666.0000	76.5577
665.9000	76.7309
665.8000	76.9056
665.7000	77.0804
665.6000	77.2583
665.5000	77.4375
665.4000	77.6145
665.3000	77.8034
665.2000	77.9865
665.1000	78.1735
665.0000	78.3546
664.9000	78.5365
664.8000	78.719
664.7000	78.9023
664.6000	79.0803
664.5000	79.2623
664.4000	79.4418
664.3000	79.6191
664.2000	79.795
664.1000	79.966
664.0000	80.1356
663.9000	80.3044
663.8000	80.4671
663.7000	80.6279
663.6000	80.7837
663.5000	80.9379
663.4000	81.0808
663.3000	81.2226
663.2000	81.361
663.1000	81.4943
663.0000	81.6267
662.9000	81.7507
662.8000	81.8663
662.7000	81.9781
662.6000	82.0783
662.5000	82.1806
662.4000	82.269
662.3000	82.3554
662.2000	82.4349
662.1000	82.504
662.0000	82.5662
661.9000	82.6193
661.8000	82.6687
661.7000	82.7116
661.6000	82.7444
661.5000	82.773
661.4000	82.7935
661.3000	82.8042
661.2000	82.8102
661.1000	82.8086
661.0000	82.7977
660.9000	82.7854
660.8000	82.7611
660.7000	82.7254
660.6000	82.6859
660.5000	82.6377
660.4000	82.5837
660.3000	82.5182
660.2000	82.453
660.1000	82.373
660.0000	82.29
659.9000	82.1991
659.8000	82.0962
659.7000	81.9954
659.6000	81.8889
659.5000	81.7721
659.4000	81.652
659.3000	81.5245
659.2000	81.3947
659.1000	81.256
659.0000	81.1139
658.9000	80.9688
658.8000	80.817
658.7000	80.664
658.6000	80.5074
658.5000	80.3461
658.4000	80.1823
658.3000	80.01
658.2000	79.8397
658.1000	79.6658
658.0000	79.487
657.9000	79.3085
657.8000	79.1294
657.7000	78.9448
657.6000	78.7629
657.5000	78.5816
657.4000	78.3993
657.3000	78.214
657.2000	78.0311
657.1000	77.8496
657.0000	77.6668
656.9000	77.4881
656.8000	77.308
656.7000	77.1327
656.6000	76.9598
656.5000	76.786
656.4000	76.6143
656.3000	76.4423
656.2000	76.2779
656.1000	76.1184
656.0000	75.9626
655.9000	75.809
655.8000	75.6591
655.7000	75.5117
655.6000	75.3737
655.5000	75.2368
655.4000	75.1034
655.3000	74.9756
655.2000	74.8533
655.1000	74.7379
655.0000	74.6282
654.9000	74.523
654.8000	74.4255
654.7000	74.3339
654.6000	74.2489
654.5000	74.1698
654.4000	74.0961
654.3000	74.0315
654.2000	73.973
654.1000	73.9218
654.0000	73.8756
653.9000	73.8393
653.8000	73.8074
653.7000	73.7819
653.6000	73.764
653.5000	73.7542
653.4000	73.7529
653.3000	73.7548
653.2000	73.7661
653.1000	73.7877
653.0000	73.8169
652.9000	73.8504
652.8000	73.8906
652.7000	73.9384
652.6000	73.9939
652.5000	74.0549
652.4000	74.1226
652.3000	74.1973
652.2000	74.2818
652.1000	74.3691
652.0000	74.4668
651.9000	74.5697
651.8000	74.6769
651.7000	74.7919
651.6000	74.9102
651.5000	75.0309
651.4000	75.1589
651.3000	75.293
651.2000	75.4321
651.1000	75.5767
651.0000	75.7234
650.9000	75.8773
650.8000	76.0335
650.7000	76.1938
650.6000	76.3587
650.5000	76.5281
650.4000	76.6996
650.3000	76.8734
650.2000	77.0523
650.1000	77.2299
650.0000	77.4106
649.9000	77.5923
649.8000	77.7716
649.7000	77.9557
649.6000	78.141
649.5000	78.326
649.4000	78.5105
649.3000	78.6948
649.2000	78.8822
649.1000	79.0672
649.0000	79.2496
648.9000	79.4306
648.8000	79.6092
648.7000	79.7846
648.6000	79.9595
648.5000	80.1301
648.4000	80.2988
648.3000	80.4659
648.2000	80.6286
648.1000	80.7833
648.0000	80.9362
647.9000	81.0816
647.8000	81.2264
647.7000	81.3652
647.6000	81.4962
647.5000	81.6208
647.4000	81.743
647.3000	81.8594
647.2000	81.9708
647.1000	82.0731
647.0000	82.1631
646.9000	82.2559
646.8000	82.3362
646.7000	82.41
646.6000	82.4817
646.5000	82.538
646.4000	82.5886
646.3000	82.6291
646.2000	82.6682
646.1000	82.6956
646.0000	82.7148
645.9000	82.7243
645.8000	82.7284
645.7000	82.7231
645.6000	82.7089
645.5000	82.6894
645.4000	82.6627
645.3000	82.6285
645.2000	82.5863
645.1000	82.5335
645.0000	82.4764
644.9000	82.4121
644.8000	82.3418
644.7000	82.261
644.6000	82.1755
644.5000	82.0776
644.4000	81.9766
644.3000	81.8712
644.2000	81.757
644.1000	81.6333
644.0000	81.5065
643.9000	81.3707
643.8000	81.2358
643.7000	81.0883
643.6000	80.9449
643.5000	80.7909
643.4000	80.6331
643.3000	80.4738
643.2000	80.3117
643.1000	80.1458
643.0000	79.9739
642.9000	79.8
642.8000	79.6227
642.7000	79.442
642.6000	79.2614
642.5000	79.0798
642.4000	78.8952
642.3000	78.71
642.2000	78.527
642.1000	78.339
642.0000	78.1538
641.9000	77.972
641.8000	77.7894
641.7000	77.6069
641.6000	77.423
641.5000	77.2443
641.4000	77.0662
641.3000	76.8915
641.2000	76.7252
641.1000	76.551
641.0000	76.3892
640.9000	76.2262
640.8000	76.0698
640.7000	75.9167
640.6000	75.7693
640.5000	75.6242
640.4000	75.4866
640.3000	75.3533
640.2000	75.2231
640.1000	75.0994
640.0000	74.9834
639.9000	74.8711
639.8000	74.7658
639.7000	74.6658
639.6000	74.5777
639.5000	74.4935
639.4000	74.416
639.3000	74.3441
639.2000	74.2847
639.1000	74.2283
639.0000	74.1792
638.9000	74.1384
638.8000	74.1052
638.7000	74.0763
638.6000	74.0568
638.5000	74.0433
638.4000	74.042
638.3000	74.0425
638.2000	74.0558
638.1000	74.0742
638.0000	74.0992
637.9000	74.1335
637.8000	74.1737
637.7000	74.2249
637.6000	74.2815
637.5000	74.3444
637.4000	74.4154
637.3000	74.4959
637.2000	74.5798
637.1000	74.6706
637.0000	74.7728
636.9000	74.8759
636.8000	74.9864
636.7000	75.1033
636.6000	75.2276
636.5000	75.356
636.4000	75.4865
636.3000	75.6222
636.2000	75.7666
636.1000	75.9171
636.0000	76.0686
635.9000	76.2237
635.8000	76.3832
635.7000	76.5469
635.6000	76.7135
635.5000	76.8851
635.4000	77.0563
635.3000	77.2306
635.2000	77.4076
635.1000	77.5875
635.0000	77.7656
634.9000	77.9492
634.8000	78.1332
634.7000	78.3173
634.6000	78.4977
634.5000	78.6799
634.4000	78.8628
634.3000	79.0439
634.2000	79.2249
634.1000	79.4039
634.0000	79.5815
633.9000	79.7556
633.8000	79.925
633.7000	80.0954
633.6000	80.2564
633.5000	80.4166
633.4000	80.5713
633.3000	80.7273
633.2000	80.8766
633.1000	81.0238
633.0000	81.1606
632.9000	81.2899
632.8000	81.418
632.7000	81.5393
632.6000	81.6549
632.5000	81.7646
632.4000	81.8654
632.3000	81.9585
632.2000	82.0461
632.1000	82.1304
632.0000	82.2069
631.9000	82.2734
631.8000	82.3319
631.7000	82.3807
631.6000	82.4244
631.5000	82.456
631.4000	82.4812
631.3000	82.5007
631.2000	82.51
631.1000	82.5097
631.0000	82.5001
630.9000	82.4825
630.8000	82.4554
630.7000	82.4221
630.6000	82.3817
630.5000	82.3345
630.4000	82.2783
630.3000	82.2152
630.2000	82.1424
630.1000	82.0582
630.0000	81.9696
629.9000	81.8735
629.8000	81.7721
629.7000	81.6647
629.6000	81.5493
629.5000	81.4281
629.4000	81.297
629.3000	81.1622
629.2000	81.0235
629.1000	80.8784
629.0000	80.7292
628.9000	80.5691
628.8000	80.4082
628.7000	80.2458
628.6000	80.0773
628.5000	79.9052
628.4000	79.732
628.3000	79.5569
628.2000	79.378
628.1000	79.1945
628.0000	79.0084
627.9000	78.825
627.8000	78.6404
627.7000	78.4543
627.6000	78.2693
627.5000	78.0869
627.4000	77.9039
627.3000	77.7159
627.2000	77.5331
627.1000	77.354
627.0000	77.1773
626.9000	77.0009
626.8000	76.83
626.7000	76.6605
626.6000	76.4934
626.5000	76.3294
626.4000	76.1701
626.3000	76.0155
626.2000	75.8648
626.1000	75.7209
626.0000	75.5788
625.9000	75.4428
625.8000	75.3104
625.7000	75.1888
625.6000	75.0695
625.5000	74.9572
625.4000	74.8545
625.3000	74.755
625.2000	74.6589
625.1000	74.5749
625.0000	74.5007
624.9000	74.4294
624.8000	74.3669
624.7000	74.3131
624.6000	74.265
624.5000	74.226
624.4000	74.1924
624.3000	74.1658
624.2000	74.1481
624.1000	74.1402
624.0000	74.1398
623.9000	74.1433
623.8000	74.159
623.7000	74.1857
623.6000	74.2145
623.5000	74.251
623.4000	74.2989
623.3000	74.3541
623.2000	74.4178
623.1000	74.4873
623.0000	74.5679
622.9000	74.6494
622.8000	74.7423
622.7000	74.8414
622.6000	74.9501
622.5000	75.0617
622.4000	75.1772
622.3000	75.301
622.2000	75.4298
622.1000	75.5672
622.0000	75.7111
621.9000	75.8571
621.8000	76.0072
621.7000	76.1637
621.6000	76.3252
621.5000	76.489
621.4000	76.6532
621.3000	76.8238
621.2000	76.9957
621.1000	77.174
621.0000	77.3526
620.9000	77.5331
620.8000	77.7156
620.7000	77.9011
620.6000	78.0827
620.5000	78.2647
620.4000	78.4468
620.3000	78.6357
620.2000	78.8149
620.1000	78.9952
620.0000	79.1694
619.9000	79.3465
619.8000	79.5197
619.7000	79.6923
619.6000	79.8606
619.5000	80.0272
619.4000	80.186
619.3000	80.3456
619.2000	80.5002
619.1000	80.6471
619.0000	80.7885
618.9000	80.9262
618.8000	81.0558
618.7000	81.1814
618.6000	81.2988
618.5000	81.4119
618.4000	81.5175
618.3000	81.6144
618.2000	81.7064
618.1000	81.7902
618.0000	81.8681
617.9000	81.9308
617.8000	81.9891
617.7000	82.0394
617.6000	82.0821
617.5000	82.1174
617.4000	82.1424
617.3000	82.1622
617.2000	82.1735
617.1000	82.17
617.0000	82.1641
616.9000	82.1467
616.8000	82.1209
616.7000	82.0851
616.6000	82.044
616.5000	81.9906
616.4000	81.9303
616.3000	81.863
616.2000	81.7897
616.1000	81.7049
616.0000	81.6135
615.9000	81.5158
615.8000	81.4117
615.7000	81.2976
615.6000	81.178
615.5000	81.0506
615.4000	80.9206
615.3000	80.7811
615.2000	80.6351
615.1000	80.4851
615.0000	80.3288
614.9000	80.1673
614.8000	80.0067
614.7000	79.8425
614.6000	79.6711
614.5000	79.4972
614.4000	79.323
614.3000	79.1401
614.2000	78.9569
614.1000	78.7711
614.0000	78.5858
613.9000	78.398
613.8000	78.2123
613.7000	78.0263
613.6000	77.8408
613.5000	77.6583
613.4000	77.4758
613.3000	77.2934
613.2000	77.1167
613.1000	76.9343
613.0000	76.76
612.9000	76.5865
612.8000	76.4181
612.7000	76.2535
612.6000	76.0934
612.5000	75.9368
612.4000	75.7868
612.3000	75.639
612.2000	75.4995
612.1000	75.3647
612.0000	75.2384
611.9000	75.1142
611.8000	75.0038
611.7000	74.897
611.6000	74.7936
611.5000	74.6982
611.4000	74.6135
611.3000	74.5325
611.2000	74.4603
611.1000	74.398
611.0000	74.3493
610.9000	74.3005
610.8000	74.2657
610.7000	74.238
610.6000	74.2164
610.5000	74.2015
610.4000	74.2013
610.3000	74.2035
610.2000	74.2171
610.1000	74.239
610.0000	74.2681
609.9000	74.3082
609.8000	74.3546
609.7000	74.4086
609.6000	74.4746
609.5000	74.544
609.4000	74.6241
609.3000	74.7103
609.2000	74.8048
609.1000	74.9099
609.0000	75.0156
608.9000	75.1304
608.8000	75.2524
608.7000	75.3809
608.6000	75.5132
608.5000	75.6513
608.4000	75.7965
608.3000	75.9458
608.2000	76.1037
608.1000	76.2645
608.0000	76.43
607.9000	76.5957
607.8000	76.7644
607.7000	76.9388
607.6000	77.1149
607.5000	77.2915
607.4000	77.4747
607.3000	77.659
607.2000	77.8408
607.1000	78.0223
607.0000	78.2032
606.9000	78.3858
606.8000	78.57
606.7000	78.7521
606.6000	78.9314
606.5000	79.11
606.4000	79.2862
606.3000	79.4585
606.2000	79.6295
606.1000	79.7932
606.0000	79.9548
605.9000	80.1088
605.8000	80.2662
605.7000	80.4121
605.6000	80.557
605.5000	80.6919
605.4000	80.8238
605.3000	80.9469
605.2000	81.0658
605.1000	81.1762
605.0000	81.2806
604.9000	81.3746
604.8000	81.4601
604.7000	81.5393
604.6000	81.6131
604.5000	81.6702
604.4000	81.7238
604.3000	81.7661
604.2000	81.7988
604.1000	81.824
604.0000	81.8425
603.9000	81.8511
603.8000	81.8542
603.7000	81.8452
603.6000	81.8252
603.5000	81.7955
603.4000	81.7633
603.3000	81.7134
603.2000	81.6585
603.1000	81.5929
603.0000	81.5221
602.9000	81.4417
602.8000	81.3564
602.7000	81.2606
602.6000	81.1581
602.5000	81.0442
602.4000	80.9235
602.3000	80.7954
602.2000	80.6665
602.1000	80.523
602.0000	80.3815
601.9000	80.2285
601.8000	80.0745
601.7000	79.9122
601.6000	79.752
601.5000	79.5814
601.4000	79.411
601.3000	79.2364
601.2000	79.0604
601.1000	78.8768
601.0000	78.6966
600.9000	78.5086
600.8000	78.3266
600.7000	78.1381
600.6000	77.9541
600.5000	77.7642
600.4000	77.5827
600.3000	77.3955
600.2000	77.2127
600.1000	77.0325
600.0000	76.7197
599.9000	76.5428
599.8000	76.3738
599.7000	76.2038
599.6000	76.0398
599.5000	75.88
599.4000	75.7225
599.3000	75.5727
599.2000	75.4269
599.1000	75.2924
599.0000	75.1582
598.9000	75.0328
598.8000	74.9157
598.7000	74.803
598.6000	74.7026
598.5000	74.607
598.4000	74.5179
598.3000	74.4389
598.2000	74.3702
598.1000	74.3094
598.0000	74.2572
597.9000	74.2112
597.8000	74.1764
597.7000	74.1508
597.6000	74.133
597.5000	74.1258
597.4000	74.128
597.3000	74.1442
597.2000	74.1646
597.1000	74.191
597.0000	74.2282
596.9000	74.2736
596.8000	74.3308
596.7000	74.3953
596.6000	74.4651
596.5000	74.5453
596.4000	74.6322
596.3000	74.7282
596.2000	74.8344
596.1000	74.9461
596.0000	75.0612
595.9000	75.1847
595.8000	75.3161
595.7000	75.4547
595.6000	75.5956
595.5000	75.7465
595.4000	75.8995
595.3000	76.0615
595.2000	76.2271
595.1000	76.3962
595.0000	76.5615
594.9000	76.7335
594.8000	76.9061
594.7000	77.0875
594.6000	77.2666
594.5000	77.4487
594.4000	77.6278
594.3000	77.8107
594.2000	77.99
594.1000	78.1698
594.0000	78.3505
593.9000	78.5294
593.8000	78.7029
593.7000	78.8767
593.6000	79.0449
593.5000	79.2109
593.4000	79.3711
593.3000	79.5308
593.2000	79.6873
593.1000	79.8358
593.0000	79.976
592.9000	80.1143
592.8000	80.2455
592.7000	80.3704
592.6000	80.4871
592.5000	80.5969
592.4000	80.7006
592.3000	80.7922
592.2000	80.8714
592.1000	80.9486
592.0000	81.0162
591.9000	81.074
591.8000	81.1234
591.7000	81.1649
591.6000	81.2012
591.5000	81.22
591.4000	81.23
591.3000	81.2342
591.2000	81.2283
591.1000	81.2107
591.0000	81.1823
590.9000	81.1466
590.8000	81.1001
590.7000	81.0482
590.6000	80.9849
590.5000	80.9141
590.4000	80.8309
590.3000	80.7451
590.2000	80.6504
590.1000	80.5463
590.0000	80.4335
589.9000	80.3117
589.8000	80.1842
589.7000	80.048
589.6000	79.9114
589.5000	79.7652
589.4000	79.6129
589.3000	79.4559
589.2000	79.2941
589.1000	79.128
589.0000	78.9632
588.9000	78.7872
588.8000	78.6079
588.7000	78.4267
588.6000	78.247
588.5000	78.0636
588.4000	77.8765
588.3000	77.6924
588.2000	77.5084
588.1000	77.3203
588.0000	77.1371
587.9000	76.9546
587.8000	76.7753
587.7000	76.5957
587.6000	76.4186
587.5000	76.2444
587.4000	76.0764
587.3000	75.9092
587.2000	75.7506
587.1000	75.5932
587.0000	75.4399
586.9000	75.2938
586.8000	75.1519
586.7000	75.0194
586.6000	74.8931
586.5000	74.773
586.4000	74.6596
586.3000	74.5526
586.2000	74.4577
586.1000	74.3661
586.0000	74.2853
585.9000	74.2117
585.8000	74.1457
585.7000	74.0922
585.6000	74.0479
585.5000	74.0103
585.4000	73.9846
585.3000	73.964
585.2000	73.9593
585.1000	73.9579
585.0000	73.9696
584.9000	73.9882
584.8000	74.0169
584.7000	74.0531
584.6000	74.1015
584.5000	74.1544
584.4000	74.2205
584.3000	74.2939
584.2000	74.3809
584.1000	74.4705
584.0000	74.5677
583.9000	74.6712
583.8000	74.786
583.7000	74.9055
583.6000	75.0318
583.5000	75.1651
583.4000	75.3058
583.3000	75.452
583.2000	75.6017
583.1000	75.7584
583.0000	75.9157
582.9000	76.0827
582.8000	76.2521
582.7000	76.4213
582.6000	76.596
582.5000	76.7657
582.4000	76.9406
582.3000	77.1202
582.2000	77.3016
582.1000	77.4846
582.0000	77.6601
581.9000	77.8391
581.8000	78.0131
581.7000	78.1891
581.6000	78.3632
581.5000	78.5317
581.4000	78.6966
581.3000	78.8591
581.2000	79.0203
581.1000	79.1719
581.0000	79.3168
580.9000	79.4588
580.8000	79.5954
580.7000	79.728
580.6000	79.8513
580.5000	79.9666
580.4000	80.0765
580.3000	80.1763
580.2000	80.2695
580.1000	80.3503
580.0000	80.4248
579.9000	80.4903
579.8000	80.5485
579.7000	80.5937
579.6000	80.6294
579.5000	80.6616
579.4000	80.681
579.3000	80.6938
579.2000	80.6974
579.1000	80.6862
579.0000	80.6631
578.9000	80.6306
578.8000	80.5919
578.7000	80.5415
578.6000	80.4824
578.5000	80.417
578.4000	80.3418
578.3000	80.2606
578.2000	80.1677
578.1000	80.0665
578.0000	79.9532
577.9000	79.8372
577.8000	79.7114
577.7000	79.5786
577.6000	79.444
577.5000	79.2971
577.4000	79.1496
577.3000	78.9964
577.2000	78.8358
577.1000	78.6729
577.0000	78.5079
576.9000	78.3381
576.8000	78.1644
576.7000	77.9855
576.6000	77.8066
576.5000	77.6268
576.4000	77.4469
576.3000	77.2634
576.2000	77.0799
576.1000	76.8976
576.0000	76.7176
575.9000	76.5392
575.8000	76.3617
575.7000	76.1891
575.6000	76.0151
575.5000	75.8487
575.4000	75.6885
575.3000	75.5241
575.2000	75.3658
575.1000	75.2123
575.0000	75.0662
574.9000	74.9265
574.8000	74.7941
574.7000	74.6676
574.6000	74.5493
574.5000	74.4383
574.4000	74.3314
574.3000	74.2343
574.2000	74.1437
574.1000	74.0651
574.0000	73.995
573.9000	73.9302
573.8000	73.8737
573.7000	73.8304
573.6000	73.7948
573.5000	73.768
573.4000	73.7519
573.3000	73.7466
573.2000	73.751
573.1000	73.7652
573.0000	73.7896
572.9000	73.8227
572.8000	73.8637
572.7000	73.9154
572.6000	73.9781
572.5000	74.0457
572.4000	74.125
572.3000	74.2127
572.2000	74.3048
572.1000	74.4104
572.0000	74.5203
571.9000	74.64
571.8000	74.764
571.7000	74.8951
571.6000	75.0319
571.5000	75.1789
571.4000	75.327
571.3000	75.4805
571.2000	75.6388
571.1000	75.8022
571.0000	75.967
570.9000	76.1329
570.8000	76.3013
570.7000	76.4773
570.6000	76.652
570.5000	76.8272
570.4000	77.0021
570.3000	77.1826
570.2000	77.3556
570.1000	77.5257
570.0000	77.6949
569.9000	77.8621
569.8000	78.0248
569.7000	78.1869
569.6000	78.342
569.5000	78.4942
569.4000	78.6371
569.3000	78.7779
569.2000	78.9125
569.1000	79.0418
569.0000	79.1648
568.9000	79.2794
568.8000	79.3868
568.7000	79.4865
568.6000	79.5774
568.5000	79.6614
568.4000	79.7357
568.3000	79.7974
568.2000	79.8518
568.1000	79.8972
568.0000	79.9327
567.9000	79.9596
567.8000	79.9777
567.7000	79.9844
567.6000	79.982
567.5000	79.9671
567.4000	79.9414
567.3000	79.9072
567.2000	79.8636
567.1000	79.8084
567.0000	79.7495
566.9000	79.6776
566.8000	79.5921
566.7000	79.5009
566.6000	79.4019
566.5000	79.2943
566.4000	79.1782
566.3000	79.0562
566.2000	78.9284
566.1000	78.7934
566.0000	78.6535
565.9000	78.5028
565.8000	78.3488
565.7000	78.189
565.6000	78.0289
565.5000	77.8617
565.4000	77.6936
565.3000	77.5186
565.2000	77.3424
565.1000	77.1641
565.0000	76.9877
564.9000	76.8111
564.8000	76.6289
564.7000	76.4477
564.6000	76.2675
564.5000	76.0902
564.4000	75.9135
564.3000	75.741
564.2000	75.5743
564.1000	75.4079
564.0000	75.2504
563.9000	75.0916
563.8000	74.9381
563.7000	74.7907
563.6000	74.6561
563.5000	74.5216
563.4000	74.3959
563.3000	74.2722
563.2000	74.1603
563.1000	74.0554
563.0000	73.9609
562.9000	73.8716
562.8000	73.7912
562.7000	73.7208
562.6000	73.6613
562.5000	73.6114
562.4000	73.5685
562.3000	73.5356
562.2000	73.5129
562.1000	73.5021
562.0000	73.5019
561.9000	73.5093
561.8000	73.5253
561.7000	73.5487
561.6000	73.5892
561.5000	73.6358
561.4000	73.6926
561.3000	73.7558
561.2000	73.836
561.1000	73.9196
561.0000	74.0092
560.9000	74.1078
560.8000	74.2121
560.7000	74.3286
560.6000	74.4521
560.5000	74.5818
560.4000	74.7142
560.3000	74.8557
560.2000	75.0022
560.1000	75.158
560.0000	75.3144
559.9000	75.4724
559.8000	75.6369
559.7000	75.8012
559.6000	75.969
559.5000	76.1388
559.4000	76.3074
559.3000	76.474
559.2000	76.6441
559.1000	76.8137
559.0000	76.9868
558.9000	77.1531
558.8000	77.3147
558.7000	77.4747
558.6000	77.6303
558.5000	77.7859
558.4000	77.9336
558.3000	78.0785
558.2000	78.2162
558.1000	78.3504
558.0000	78.4707
557.9000	78.5848
557.8000	78.6951
557.7000	78.7942
557.6000	78.8884
557.5000	78.9713
557.4000	79.0459
557.3000	79.1125
557.2000	79.1709
557.1000	79.2195
557.0000	79.2557
556.9000	79.2809
556.8000	79.2989
556.7000	79.3029
556.6000	79.2983
556.5000	79.2877
556.4000	79.2632
556.3000	79.2287
556.2000	79.1858
556.1000	79.1333
556.0000	79.0688
555.9000	78.9949
555.8000	78.9064
555.7000	78.8129
555.6000	78.7155
555.5000	78.6079
555.4000	78.491
555.3000	78.3657
555.2000	78.2326
555.1000	78.0938
555.0000	77.9463
554.9000	77.7924
554.8000	77.6363
554.7000	77.4767
554.6000	77.3111
554.5000	77.1464
554.4000	76.9746
554.3000	76.8038
554.2000	76.6258
554.1000	76.448
554.0000	76.2699
553.9000	76.0912
553.8000	75.9142
553.7000	75.7353
553.6000	75.5587
553.5000	75.39
553.4000	75.2182
553.3000	75.0525
553.2000	74.8903
553.1000	74.7328
553.0000	74.579
552.9000	74.4343
552.8000	74.2929
552.7000	74.1622
552.6000	74.0391
552.5000	73.9227
552.4000	73.8062
552.3000	73.7043
552.2000	73.61
552.1000	73.5251
552.0000	73.4505
551.9000	73.3802
551.8000	73.326
551.7000	73.2809
551.6000	73.2446
551.5000	73.218
551.4000	73.202
551.3000	73.1982
551.2000	73.2024
551.1000	73.2161
551.0000	73.2439
550.9000	73.2814
550.8000	73.3247
550.7000	73.3823
550.6000	73.4492
550.5000	73.5266
550.4000	73.6086
550.3000	73.7006
550.2000	73.8018
550.1000	73.9098
550.0000	74.025
549.9000	74.1486
549.8000	74.279
549.7000	74.4149
549.6000	74.5573
549.5000	74.7022
549.4000	74.8517
549.3000	75.0063
549.2000	75.1687
549.1000	75.3341
549.0000	75.5004
548.9000	75.667
548.8000	75.8296
548.7000	75.9976
548.6000	76.1651
548.5000	76.3309
548.4000	76.4939
548.3000	76.6539
548.2000	76.8118
548.1000	76.9649
548.0000	77.1144
547.9000	77.2581
547.8000	77.3944
547.7000	77.5278
547.6000	77.6563
547.5000	77.7781
547.4000	77.8894
547.3000	77.9948
547.2000	78.0917
547.1000	78.1811
547.0000	78.2599
546.9000	78.3339
546.8000	78.3963
546.7000	78.4478
546.6000	78.4904
546.5000	78.5217
546.4000	78.5434
546.3000	78.5536
546.2000	78.551
546.1000	78.5403
546.0000	78.5222
545.9000	78.4866
545.8000	78.4426
545.7000	78.3902
545.6000	78.3298
545.5000	78.2621
545.4000	78.1803
545.3000	78.089
545.2000	77.9916
545.1000	77.8846
545.0000	77.774
544.9000	77.6502
544.8000	77.5219
544.7000	77.3867
544.6000	77.2453
544.5000	77.0961
544.4000	76.9444
544.3000	76.7845
544.2000	76.6244
544.1000	76.4594
544.0000	76.2978
543.9000	76.1283
543.8000	75.9603
543.7000	75.7852
543.6000	75.6172
543.5000	75.4449
543.4000	75.2741
543.3000	75.1061
543.2000	74.9414
543.1000	74.776
543.0000	74.6205
542.9000	74.4663
542.8000	74.3127
542.7000	74.1673
542.6000	74.0297
542.5000	73.8953
542.4000	73.7715
542.3000	73.6499
542.2000	73.5402
542.1000	73.4353
542.0000	73.3447
541.9000	73.2602
541.8000	73.1831
541.7000	73.1162
541.6000	73.0604
541.5000	73.0112
541.4000	72.9759
541.3000	72.9495
541.2000	72.9311
541.1000	72.9221
541.0000	72.928
540.9000	72.9418
540.8000	72.9641
540.7000	72.9965
540.6000	73.0394
540.5000	73.0961
540.4000	73.1584
540.3000	73.231
540.2000	73.3132
540.1000	73.4036
540.0000	73.5034
539.9000	73.6116
539.8000	73.7264
539.7000	73.8457
539.6000	73.9756
539.5000	74.1083
539.4000	74.2474
539.3000	74.3904
539.2000	74.5378
539.1000	74.6919
539.0000	74.8458
538.9000	75.0043
538.8000	75.1602
538.7000	75.3194
538.6000	75.477
538.5000	75.6343
538.4000	75.795
538.3000	75.9536
538.2000	76.1099
538.1000	76.263
538.0000	76.4133
537.9000	76.5563
537.8000	76.6943
537.7000	76.8283
537.6000	76.9555
537.5000	77.0799
537.4000	77.1971
537.3000	77.3025
537.2000	77.4016
537.1000	77.4932
537.0000	77.5776
536.9000	77.6494
536.8000	77.7122
536.7000	77.7684
536.6000	77.8136
536.5000	77.8494
536.4000	77.8725
536.3000	77.8866
536.2000	77.8934
536.1000	77.8887
536.0000	77.8747
535.9000	77.8458
535.8000	77.8102
535.7000	77.7664
535.6000	77.712
535.5000	77.6481
535.4000	77.5746
535.3000	77.4927
535.2000	77.4002
535.1000	77.2997
535.0000	77.1898
534.9000	77.0739
534.8000	76.9504
534.7000	76.8245
534.6000	76.6877
534.5000	76.5474
534.4000	76.4012
534.3000	76.2509
534.2000	76.0966
534.1000	75.9386
534.0000	75.7766
533.9000	75.6166
533.8000	75.45
533.7000	75.2895
533.6000	75.1273
533.5000	74.9643
533.4000	74.8004
533.3000	74.6398
533.2000	74.482
533.1000	74.3299
533.0000	74.1801
532.9000	74.0346
532.8000	73.892
532.7000	73.7583
532.6000	73.6294
532.5000	73.5074
532.4000	73.3888
532.3000	73.2791
532.2000	73.1782
532.1000	73.087
532.0000	73.0007
531.9000	72.9267
531.8000	72.8608
531.7000	72.8033
531.6000	72.7571
531.5000	72.7202
531.4000	72.692
531.3000	72.6756
531.2000	72.6726
531.1000	72.6779
531.0000	72.6895
530.9000	72.7154
530.8000	72.7534
530.7000	72.8011
530.6000	72.8581
530.5000	72.9208
530.4000	72.9915
530.3000	73.0713
530.2000	73.1612
530.1000	73.2614
530.0000	73.3699
529.9000	73.4805
529.8000	73.5915
529.7000	73.7147
529.6000	73.8456
529.5000	73.9798
529.4000	74.1139
529.3000	74.2546
529.2000	74.3981
529.1000	74.5462
529.0000	74.6963
528.9000	74.8454
528.8000	74.9912
528.7000	75.1425
528.6000	75.2911
528.5000	75.4399
528.4000	75.5834
528.3000	75.7234
528.2000	75.8649
528.1000	75.9977
528.0000	76.123
527.9000	76.2455
527.8000	76.3622
527.7000	76.4734
527.6000	76.5747
527.5000	76.6647
527.4000	76.749
527.3000	76.8267
527.2000	76.8961
527.1000	76.9609
527.0000	77.0137
526.9000	77.0514
526.8000	77.0812
526.7000	77.103
526.6000	77.1217
526.5000	77.1243
526.4000	77.1152
526.3000	77.0996
526.2000	77.0767
526.1000	77.0386
526.0000	76.9917
525.9000	76.9362
525.8000	76.8686
525.7000	76.7919
525.6000	76.7121
525.5000	76.6166
525.4000	76.5175
525.3000	76.4067
525.2000	76.2929
525.1000	76.174
525.0000	76.0459
524.9000	75.9166
524.8000	75.783
524.7000	75.6388
524.6000	75.4947
524.5000	75.3433
524.4000	75.1934
524.3000	75.0404
524.2000	74.8877
524.1000	74.7327
524.0000	74.5804
523.9000	74.4245
523.8000	74.2726
523.7000	74.124
523.6000	73.9766
523.5000	73.8355
523.4000	73.6949
523.3000	73.5587
523.2000	73.4285
523.1000	73.3031
523.0000	73.1852
522.9000	73.074
522.8000	72.9744
522.7000	72.8772
522.6000	72.7919
522.5000	72.7171
522.4000	72.6508
522.3000	72.5915
522.2000	72.5434
522.1000	72.5052
522.0000	72.4757
521.9000	72.4561
521.8000	72.4447
521.7000	72.4427
521.6000	72.4509
521.5000	72.4668
521.4000	72.4973
521.3000	72.5368
521.2000	72.5858
521.1000	72.644
521.0000	72.7094
520.9000	72.7836
520.8000	72.8694
520.7000	72.9573
520.6000	73.0601
520.5000	73.1667
520.4000	73.2792
520.3000	73.3934
520.2000	73.5168
520.1000	73.6459
520.0000	73.7326
519.9000	73.8661
519.8000	74.0039
519.7000	74.1469
519.6000	74.2865
519.5000	74.4288
519.4000	74.5694
519.3000	74.7047
519.2000	74.8461
519.1000	74.9858
519.0000	75.1194
518.9000	75.2504
518.8000	75.3762
518.7000	75.4959
518.6000	75.612
518.5000	75.7181
518.4000	75.8196
518.3000	75.9137
518.2000	76.0036
518.1000	76.0859
518.0000	76.1555
517.9000	76.2204
517.8000	76.2737
517.7000	76.3181
517.6000	76.3551
517.5000	76.381
517.4000	76.3966
517.3000	76.4029
517.2000	76.3992
517.1000	76.3826
517.0000	76.3579
516.9000	76.3243
516.8000	76.2805
516.7000	76.23
516.6000	76.1644
516.5000	76.0899
516.4000	76.0123
516.3000	75.9249
516.2000	75.8322
516.1000	75.7357
516.0000	75.6255
515.9000	75.5092
515.8000	75.3908
515.7000	75.268
515.6000	75.1371
515.5000	75.0026
515.4000	74.8677
515.3000	74.731
515.2000	74.5891
515.1000	74.4461
515.0000	74.2997
514.9000	74.1524
514.8000	74.0093
514.7000	73.8696
514.6000	73.7303
514.5000	73.593
514.4000	73.4557
514.3000	73.3252
514.2000	73.1992
514.1000	73.0818
514.0000	72.9667
513.9000	72.859
513.8000	72.7591
513.7000	72.6667
513.6000	72.5835
513.5000	72.5068
513.4000	72.4381
513.3000	72.3827
513.2000	72.3297
513.1000	72.2869
513.0000	72.2531
512.9000	72.2263
512.8000	72.2115
512.7000	72.2081
512.6000	72.2097
512.5000	72.2226
512.4000	72.2496
512.3000	72.2813
512.2000	72.325
512.1000	72.3786
512.0000	72.439
511.9000	72.5082
511.8000	72.5844
511.7000	72.6693
511.6000	72.7578
511.5000	72.8556
511.4000	72.9594
511.3000	73.0682
511.2000	73.1847
511.1000	73.3012
511.0000	73.4205
510.9000	73.5439
510.8000	73.671
510.7000	73.8046
510.6000	73.9333
510.5000	74.0625
510.4000	74.1907
510.3000	74.3185
510.2000	74.4475
510.1000	74.5691
510.0000	74.6904
509.9000	74.8099
509.8000	74.9221
509.7000	75.0339
509.6000	75.1347
509.5000	75.2324
509.4000	75.3214
509.3000	75.4024
509.2000	75.4741
509.1000	75.5436
509.0000	75.601
508.9000	75.6479
508.8000	75.6857
508.7000	75.7184
508.6000	75.74
508.5000	75.7528
508.4000	75.7602
508.3000	75.7553
508.2000	75.7391
508.1000	75.7144
508.0000	75.6771
507.9000	75.6352
507.8000	75.5854
507.7000	75.5255
507.6000	75.4535
507.5000	75.3736
507.4000	75.2836
507.3000	75.1931
507.2000	75.0947
507.1000	74.9907
507.0000	74.8783
506.9000	74.7658
506.8000	74.6438
506.7000	74.5198
506.6000	74.3937
506.5000	74.2644
506.4000	74.1335
506.3000	74.0013
506.2000	73.8717
506.1000	73.7408
506.0000	73.6079
505.9000	73.4809
505.8000	73.3528
505.7000	73.2306
505.6000	73.1129
505.5000	73.0001
505.4000	72.8918
505.3000	72.7887
505.2000	72.6887
505.1000	72.5958
505.0000	72.5141
504.9000	72.4378
504.8000	72.3701
504.7000	72.3115
504.6000	72.2587
504.5000	72.2154
504.4000	72.179
504.3000	72.1525
504.2000	72.1398
504.1000	72.1345
504.0000	72.138
503.9000	72.1506
503.8000	72.1711
503.7000	72.1992
503.6000	72.2401
503.5000	72.2882
503.4000	72.3457
503.3000	72.408
503.2000	72.48
503.1000	72.5599
503.0000	72.6424
502.9000	72.7341
502.8000	72.8344
502.7000	72.9347
502.6000	73.0439
502.5000	73.1563
502.4000	73.2689
502.3000	73.3849
502.2000	73.5018
502.1000	73.6194
502.0000	73.7355
501.9000	73.8539
501.8000	73.9681
501.7000	74.0848
501.6000	74.1989
501.5000	74.3058
501.4000	74.4115
501.3000	74.5115
501.2000	74.6121
501.1000	74.705
501.0000	74.7904
500.9000	74.865
500.8000	74.9358
500.7000	74.9984
500.6000	75.0544
500.5000	75.102
500.4000	75.1403
500.3000	75.1712
500.2000	75.1908
500.1000	75.2065
500.0000	75.2133
499.9000	75.2073
499.8000	75.1951
499.7000	75.1724
499.6000	75.1391
499.5000	75.1008
499.4000	75.0511
499.3000	74.9931
499.2000	74.9304
499.1000	74.8567
499.0000	74.776
498.9000	74.6927
498.8000	74.6042
498.7000	74.5058
498.6000	74.4066
498.5000	74.3007
498.4000	74.1937
498.3000	74.0832
498.2000	73.9689
498.1000	73.8554
498.0000	73.738
497.9000	73.6228
497.8000	73.5064
497.7000	73.3939
497.6000	73.28
497.5000	73.168
497.4000	73.0614
497.3000	72.9584
497.2000	72.8582
497.1000	72.7646
497.0000	72.6742
496.9000	72.5881
496.8000	72.5051
496.7000	72.4337
496.6000	72.3687
496.5000	72.3112
496.4000	72.2626
496.3000	72.2197
496.2000	72.1863
496.1000	72.1593
496.0000	72.1411
495.9000	72.1345
495.8000	72.1361
495.7000	72.143
495.6000	72.1603
495.5000	72.1873
495.4000	72.2167
495.3000	72.2597
495.2000	72.3048
495.1000	72.3623
495.0000	72.4241
494.9000	72.4931
494.8000	72.5689
494.7000	72.6495
494.6000	72.7345
494.5000	72.8218
494.4000	72.9131
494.3000	73.0123
494.2000	73.1102
494.1000	73.2134
494.0000	73.3171
493.9000	73.4194
493.8000	73.5208
493.7000	73.6269
493.6000	73.7306
493.5000	73.8284
493.4000	73.9266
493.3000	74.023
493.2000	74.1106
493.1000	74.1982
493.0000	74.2786
492.9000	74.3553
492.8000	74.4236
492.7000	74.487
492.6000	74.5452
492.5000	74.5978
492.4000	74.6402
492.3000	74.6769
492.2000	74.7067
492.1000	74.7215
492.0000	74.7313
491.9000	74.7365
491.8000	74.7313
491.7000	74.7145
491.6000	74.6901
491.5000	74.6584
491.4000	74.6194
491.3000	74.5759
491.2000	74.5272
491.1000	74.464
491.0000	74.3991
490.9000	74.3235
490.8000	74.244
490.7000	74.1616
490.6000	74.0784
490.5000	73.9857
490.4000	73.8891
490.3000	73.7932
490.2000	73.6916
490.1000	73.5934
490.0000	73.4928
489.9000	73.3885
489.8000	73.2883
489.7000	73.1899
489.6000	73.0924
489.5000	72.994
489.4000	72.8987
489.3000	72.8049
489.2000	72.719
489.1000	72.6363
489.0000	72.5582
488.9000	72.4872
488.8000	72.4223
488.7000	72.3599
488.6000	72.309
488.5000	72.2663
488.4000	72.2291
488.3000	72.1955
488.2000	72.1745
488.1000	72.1611
488.0000	72.1507
487.9000	72.1536
487.8000	72.164
487.7000	72.1821
487.6000	72.2065
487.5000	72.2377
487.4000	72.2777
487.3000	72.3202
487.2000	72.372
487.1000	72.4312
487.0000	72.4939
486.9000	72.56
486.8000	72.6328
486.7000	72.711
486.6000	72.7913
486.5000	72.8724
486.4000	72.9572
486.3000	73.0456
486.2000	73.1351
486.1000	73.2293
486.0000	73.3203
485.9000	73.4093
485.8000	73.4997
485.7000	73.5893
485.6000	73.6753
485.5000	73.7579
485.4000	73.8368
485.3000	73.9081
485.2000	73.9796
485.1000	74.0487
485.0000	74.1092
484.9000	74.1643
484.8000	74.213
484.7000	74.2598
484.6000	74.294
484.5000	74.3214
484.4000	74.3418
484.3000	74.3537
484.2000	74.3558
484.1000	74.3558
484.0000	74.3508
483.9000	74.3338
483.8000	74.3137
483.7000	74.2847
483.6000	74.2519
483.5000	74.2117
483.4000	74.1637
483.3000	74.1108
483.2000	74.054
483.1000	73.9921
483.0000	73.9214
482.9000	73.8505
482.8000	73.7727
482.7000	73.6947
482.6000	73.6095
482.5000	73.5268
482.4000	73.4427
482.3000	73.3572
482.2000	73.2683
482.1000	73.187
482.0000	73.1035
481.9000	73.0253
481.8000	72.9456
481.7000	72.865
481.6000	72.7906
481.5000	72.7169
481.4000	72.6468
481.3000	72.5865
481.2000	72.5315
481.1000	72.483
481.0000	72.4369
480.9000	72.3975
480.8000	72.3627
480.7000	72.3344
480.6000	72.3132
480.5000	72.2981
480.4000	72.2906
480.3000	72.2899
480.2000	72.2916
480.1000	72.3042
480.0000	72.3225
479.9000	72.3481
479.8000	72.38
479.7000	72.4137
479.6000	72.4597
479.5000	72.5101
479.4000	72.5653
479.3000	72.6212
479.2000	72.6836
479.1000	72.7513
479.0000	72.8265
478.9000	72.8972
478.8000	72.9699
478.7000	73.0381
478.6000	73.1111
478.5000	73.1856
478.4000	73.2616
478.3000	73.3364
478.2000	73.4113
478.1000	73.4818
478.0000	73.5517
477.9000	73.6157
477.8000	73.6806
477.7000	73.7415
477.6000	73.7938
477.5000	73.8449
477.4000	73.8919
477.3000	73.9344
477.2000	73.9694
477.1000	73.9956
477.0000	74.0245
476.9000	74.0437
476.8000	74.0551
476.7000	74.0579
476.6000	74.0572
476.5000	74.051
476.4000	74.035
476.3000	74.0124
476.2000	73.99
476.1000	73.9606
476.0000	73.9228
475.9000	73.8794
475.8000	73.8287
475.7000	73.7799
475.6000	73.7255
475.5000	73.6702
475.4000	73.6087
475.3000	73.5458
475.2000	73.4783
475.1000	73.4107
475.0000	73.342
474.9000	73.275
474.8000	73.206
474.7000	73.14
474.6000	73.0705
474.5000	73.002
474.4000	72.9364
474.3000	72.8759
474.2000	72.8144
474.1000	72.7566
474.0000	72.7046
473.9000	72.6593
473.8000	72.6184
473.7000	72.5776
473.6000	72.5441
473.5000	72.518
473.4000	72.4982
473.3000	72.4834
473.2000	72.4735
473.1000	72.4678
473.0000	72.4671
472.9000	72.4725
472.8000	72.4833
472.7000	72.501
472.6000	72.5244
472.5000	72.5518
472.4000	72.5843
472.3000	72.6188
472.2000	72.6608
472.1000	72.7083
472.0000	72.7575
471.9000	72.8085
471.8000	72.8627
471.7000	72.9173
471.6000	72.9739
471.5000	73.0332
471.4000	73.0925
471.3000	73.1573
471.2000	73.2213
471.1000	73.283
471.0000	73.3417
470.9000	73.4021
470.8000	73.4535
470.7000	73.5095
470.6000	73.5542
470.5000	73.6026
470.4000	73.645
470.3000	73.6843
470.2000	73.7168
470.1000	73.7447
470.0000	73.768
469.9000	73.7907
469.8000	73.8082
469.7000	73.8215
469.6000	73.8303
469.5000	73.8322
469.4000	73.8263
469.3000	73.8175
469.2000	73.8
469.1000	73.7819
469.0000	73.7586
468.9000	73.7326
468.8000	73.6999
468.7000	73.6662
468.6000	73.626
468.5000	73.5841
468.4000	73.5387
468.3000	73.492
468.2000	73.4466
468.1000	73.3956
468.0000	73.3415
467.9000	73.2896
467.8000	73.2371
467.7000	73.1857
467.6000	73.1356
467.5000	73.0827
467.4000	73.0327
467.3000	72.9886
467.2000	72.9446
467.1000	72.9028
467.0000	72.8634
466.9000	72.8319
466.8000	72.8002
466.7000	72.7693
466.6000	72.7411
466.5000	72.722
466.4000	72.7025
466.3000	72.6906
466.2000	72.6831
466.1000	72.6825
466.0000	72.6849
465.9000	72.6926
465.8000	72.702
465.7000	72.7174
465.6000	72.7352
465.5000	72.7628
465.4000	72.7919
465.3000	72.8287
465.2000	72.8599
465.1000	72.8983
465.0000	72.9356
464.9000	72.9783
464.8000	73.0224
464.7000	73.0676
464.6000	73.1151
464.5000	73.1617
464.4000	73.2093
464.3000	73.2591
464.2000	73.3063
464.1000	73.3568
464.0000	73.401
463.9000	73.448
463.8000	73.4861
463.7000	73.5266
463.6000	73.5619
463.5000	73.6029
463.4000	73.6324
463.3000	73.663
463.2000	73.6873
463.1000	73.7114
463.0000	73.7257
462.9000	73.7403
462.8000	73.7494
462.7000	73.7589
462.6000	73.7594
462.5000	73.7618
462.4000	73.7565
462.3000	73.7469
462.2000	73.7308
462.1000	73.712
462.0000	73.692
461.9000	73.6745
461.8000	73.6498
461.7000	73.6244
461.6000	73.5946
461.5000	73.566
461.4000	73.5294
461.3000	73.4989
461.2000	73.4618
461.1000	73.4314
461.0000	73.3939
460.9000	73.3561
460.8000	73.3148
460.7000	73.2847
460.6000	73.2525
460.5000	73.2272
460.4000	73.1941
460.3000	73.169
460.2000	73.1439
460.1000	73.1208
460.0000	73.0946
459.9000	73.0772
459.8000	73.0646
459.7000	73.057
459.6000	73.0473
459.5000	73.0452
459.4000	73.0398
459.3000	73.0428
459.2000	73.0441
459.1000	73.0531
459.0000	73.0633
458.9000	73.0818
458.8000	73.095
458.7000	73.1119
458.6000	73.1301
458.5000	73.1582
458.4000	73.1815
458.3000	73.2137
458.2000	73.2435
458.1000	73.2782
458.0000	73.3055
457.9000	73.3408
457.8000	73.3728
457.7000	73.4096
457.6000	73.4475
457.5000	73.4816
457.4000	73.5143
457.3000	73.5464
457.2000	73.5805
457.1000	73.6151
457.0000	73.6392
456.9000	73.6691
456.8000	73.6966
456.7000	73.7235
456.6000	73.7398
456.5000	73.7598
456.4000	73.7716
456.3000	73.7901
456.2000	73.7994
456.1000	73.8086
456.0000	73.8144
455.9000	73.8188
455.8000	73.8166
455.7000	73.8158
455.6000	73.8149
455.5000	73.812
455.4000	73.8023
455.3000	73.7964
455.2000	73.7849
455.1000	73.7738
455.0000	73.7522
454.9000	73.74
454.8000	73.7245
454.7000	73.703
454.6000	73.682
454.5000	73.6662
454.4000	73.645
454.3000	73.6308
454.2000	73.6122
454.1000	73.5948
454.0000	73.5724
453.9000	73.5559
453.8000	73.5388
453.7000	73.529
453.6000	73.5134
453.5000	73.5047
453.4000	73.4929
453.3000	73.4861
453.2000	73.4815
453.1000	73.4779
453.0000	73.4768
452.9000	73.4777
452.8000	73.4793
452.7000	73.4863
452.6000	73.4944
452.5000	73.5037
452.4000	73.5122
452.3000	73.5284
452.2000	73.5389
452.1000	73.553
452.0000	73.5657
451.9000	73.5835
451.8000	73.6043
451.7000	73.625
451.6000	73.6433
451.5000	73.669
451.4000	73.6905
451.3000	73.7102
451.2000	73.7306
451.1000	73.749
451.0000	73.7693
450.9000	73.7874
450.8000	73.8064
450.7000	73.8251
450.6000	73.8445
450.5000	73.8587
450.4000	73.8728
450.3000	73.8843
450.2000	73.8974
450.1000	73.9062
450.0000	73.9134
449.9000	73.9204
449.8000	73.9269
449.7000	73.9325
449.6000	73.9357
449.5000	73.9381
449.4000	73.9358
449.3000	73.9388
449.2000	73.9369
449.1000	73.9332
449.0000	73.9329
448.9000	73.9289
448.8000	73.9268
448.7000	73.9174
448.6000	73.914
448.5000	73.9049
448.4000	73.9024
448.3000	73.8956
448.2000	73.8938
448.1000	73.8889
448.0000	73.8847
447.9000	73.8788
447.8000	73.8715
447.7000	73.8699
447.6000	73.8678
447.5000	73.8629
447.4000	73.8621
447.3000	73.8594
447.2000	73.8622
447.1000	73.8628
447.0000	73.8684
446.9000	73.8722
446.8000	73.8797
446.7000	73.8798
446.6000	73.8863
446.5000	73.8911
446.4000	73.8959
446.3000	73.9009
446.2000	73.9112
446.1000	73.9156
446.0000	73.9263
445.9000	73.9288
445.8000	73.9363
445.7000	73.9455
445.6000	73.9567
445.5000	73.9667
445.4000	73.9753
445.3000	73.9804
445.2000	73.9876
445.1000	73.9926
445.0000	73.9991
444.9000	74.0004
444.8000	74.0055
444.7000	74.0097
444.6000	74.0182
444.5000	74.0183
444.4000	74.0228
444.3000	74.0243
444.2000	74.0271
444.1000	74.0246
444.0000	74.0272
443.9000	74.0245
443.8000	74.025
443.7000	74.0201
443.6000	74.0192
443.5000	74.0164
443.4000	74.0169
443.3000	74.0119
443.2000	74.0147
443.1000	74.0116
443.0000	74.0133
442.9000	74.0092
442.8000	74.008
442.7000	74.0082
442.6000	74.0127
442.5000	74.01
442.4000	74.0115
442.3000	74.0145
442.2000	74.0222
442.1000	74.023
442.0000	74.0311
441.9000	74.0293
441.8000	74.0335
441.7000	74.0405
441.6000	74.049
441.5000	74.0513
441.4000	74.06
441.3000	74.0674
441.2000	74.0801
441.1000	74.0835
441.0000	74.0948
440.9000	74.1019
440.8000	74.112
440.7000	74.1175
440.6000	74.1265
440.5000	74.1315
440.4000	74.1424
440.3000	74.1477
440.2000	74.1554
440.1000	74.1588
440.0000	74.1678
439.9000	74.1694
439.8000	74.1752
439.7000	74.1721
439.6000	74.1763
439.5000	74.1741
439.4000	74.1758
439.3000	74.1691
439.2000	74.1698
439.1000	74.1585
439.0000	74.1533
438.9000	74.1428
438.8000	74.1359
438.7000	74.1301
438.6000	74.1289
438.5000	74.1126
438.4000	74.1084
438.3000	74.0977
438.2000	74.0939
438.1000	74.0811
438.0000	74.074
437.9000	74.0629
437.8000	74.0586
437.7000	74.0503
437.6000	74.0484
437.5000	74.0442
437.4000	74.0445
437.3000	74.0406
437.2000	74.0418
437.1000	74.0404
437.0000	74.0436
436.9000	74.0458
436.8000	74.0517
436.7000	74.0541
436.6000	74.0635
436.5000	74.0711
436.4000	74.084
436.3000	74.0935
436.2000	74.1059
436.1000	74.1147
436.0000	74.1297
435.9000	74.1419
435.8000	74.1609
435.7000	74.1767
435.6000	74.1947
435.5000	74.2056
435.4000	74.221
435.3000	74.2363
435.2000	74.2516
435.1000	74.2601
435.0000	74.2709
434.9000	74.2756
434.8000	74.2866
434.7000	74.2912
434.6000	74.303
434.5000	74.3039
434.4000	74.3118
434.3000	74.309
434.2000	74.308
434.1000	74.304
434.0000	74.3026
433.9000	74.2928
433.8000	74.2901
433.7000	74.2738
433.6000	74.2634
433.5000	74.248
433.4000	74.2362
433.3000	74.2195
433.2000	74.2036
433.1000	74.183
433.0000	74.1716
432.9000	74.1507
432.8000	74.1386
432.7000	74.1228
432.6000	74.1088
432.5000	74.0896
432.4000	74.0783
432.3000	74.0633
432.2000	74.0554
432.1000	74.0473
432.0000	74.0423
431.9000	74.0373
431.8000	74.0351
431.7000	74.0363
431.6000	74.037
431.5000	74.0404
431.4000	74.0414
431.3000	74.049
431.2000	74.0558
431.1000	74.0688
431.0000	74.0825
430.9000	74.0992
430.8000	74.1144
430.7000	74.1348
430.6000	74.1515
430.5000	74.1773
430.4000	74.195
430.3000	74.2194
430.2000	74.2364
430.1000	74.2606
430.0000	74.2812
429.9000	74.3038
429.8000	74.3195
429.7000	74.3429
429.6000	74.3502
429.5000	74.3698
429.4000	74.3759
429.3000	74.3952
429.2000	74.3979
429.1000	74.413
429.0000	74.4097
428.9000	74.4173
428.8000	74.4071
428.7000	74.4115
428.6000	74.4006
428.5000	74.3976
428.4000	74.3858
428.3000	74.3815
428.2000	74.3619
428.1000	74.3573
428.0000	74.3342
427.9000	74.3234
427.8000	74.2996
427.7000	74.2909
427.6000	74.2639
427.5000	74.2536
427.4000	74.2273
427.3000	74.2178
427.2000	74.1949
427.1000	74.1883
427.0000	74.1672
426.9000	74.1683
426.8000	74.152
426.7000	74.1595
426.6000	74.1452
426.5000	74.1542
426.4000	74.1502
426.3000	74.1657
426.2000	74.1646
426.1000	74.1828
426.0000	74.1885
425.9000	74.2096
425.8000	74.2204
425.7000	74.2488
425.6000	74.2644
425.5000	74.2941
425.4000	74.3135
425.3000	74.3468
425.2000	74.3674
425.1000	74.4054
425.0000	74.4274
424.9000	74.4642
424.8000	74.4847
424.7000	74.5202
424.6000	74.5401
424.5000	74.5707
424.4000	74.5885
424.3000	74.6192
424.2000	74.6354
424.1000	74.6582
424.0000	74.6721
423.9000	74.6925
423.8000	74.7004
423.7000	74.7103
423.6000	74.7106
423.5000	74.7156
423.4000	74.7114
423.3000	74.7148
423.2000	74.7056
423.1000	74.7012
423.0000	74.6907
422.9000	74.6858
422.8000	74.6733
422.7000	74.6665
422.6000	74.6494
422.5000	74.6388
422.4000	74.6287
422.3000	74.6227
422.2000	74.6085
422.1000	74.6045
422.0000	74.5916
421.9000	74.5861
421.8000	74.5822
421.7000	74.5813
421.6000	74.5808
421.5000	74.5834
421.4000	74.5904
421.3000	74.5973
421.2000	74.6063
421.1000	74.619
421.0000	74.6366
420.9000	74.6556
420.8000	74.6741
420.7000	74.6992
420.6000	74.7216
420.5000	74.7479
420.4000	74.7732
420.3000	74.7985
420.2000	74.8296
420.1000	74.8541
420.0000	74.4516
419.9000	74.4742
419.8000	74.5055
419.7000	74.523
419.6000	74.5438
419.5000	74.5664
419.4000	74.5858
419.3000	74.5982
419.2000	74.6074
419.1000	74.6151
419.0000	74.623
418.9000	74.6278
418.8000	74.6268
418.7000	74.6217
418.6000	74.6115
418.5000	74.6056
418.4000	74.5912
418.3000	74.5788
418.2000	74.5603
418.1000	74.5403
418.0000	74.5158
417.9000	74.4971
417.8000	74.47
417.7000	74.4429
417.6000	74.4121
417.5000	74.3866
417.4000	74.3542
417.3000	74.3364
417.2000	74.3061
417.1000	74.2876
417.0000	74.2596
416.9000	74.243
416.8000	74.221
416.7000	74.2142
416.6000	74.1995
416.5000	74.2032
416.4000	74.199
416.3000	74.2046
416.2000	74.2039
416.1000	74.2172
416.0000	74.2196
415.9000	74.2374
415.8000	74.2465
415.7000	74.2683
415.6000	74.2809
415.5000	74.3102
415.4000	74.3283
415.3000	74.3583
415.2000	74.3783
415.1000	74.4056
415.0000	74.423
414.9000	74.4536
414.8000	74.472
414.7000	74.4942
414.6000	74.5097
414.5000	74.5345
414.4000	74.5453
414.3000	74.5685
414.2000	74.5761
414.1000	74.5815
414.0000	74.5799
413.9000	74.5879
413.8000	74.583
413.7000	74.584
413.6000	74.5727
413.5000	74.5675
413.4000	74.5515
413.3000	74.5429
413.2000	74.5211
413.1000	74.5097
413.0000	74.484
412.9000	74.4711
412.8000	74.4504
412.7000	74.4373
412.6000	74.417
412.5000	74.4067
412.4000	74.3918
412.3000	74.377
412.2000	74.3606
412.1000	74.355
412.0000	74.345
411.9000	74.3435
411.8000	74.3405
411.7000	74.3424
411.6000	74.3447
411.5000	74.3524
411.4000	74.3605
411.3000	74.3753
411.2000	74.3898
411.1000	74.4015
411.0000	74.4171
410.9000	74.4361
410.8000	74.459
410.7000	74.4739
410.6000	74.491
410.5000	74.5091
410.4000	74.5315
410.3000	74.5491
410.2000	74.5663
410.1000	74.577
410.0000	74.5914
409.9000	74.5985
409.8000	74.6154
409.7000	74.6144
409.6000	74.6239
409.5000	74.6175
409.4000	74.621
409.3000	74.6092
409.2000	74.6064
409.1000	74.5953
409.0000	74.5886
408.9000	74.5648
408.8000	74.5522
408.7000	74.5246
408.6000	74.5064
408.5000	74.4781
408.4000	74.4592
408.3000	74.4303
408.2000	74.4124
408.1000	74.3763
408.0000	74.3599
407.9000	74.3307
407.8000	74.3165
407.7000	74.2914
407.6000	74.2813
407.5000	74.2573
407.4000	74.2544
407.3000	74.2347
407.2000	74.2336
407.1000	74.2166
407.0000	74.2229
406.9000	74.2049
406.8000	74.2129
406.7000	74.2048
406.6000	74.2142
406.5000	74.2102
406.4000	74.2188
406.3000	74.2099
406.2000	74.219
406.1000	74.2086
406.0000	74.2127
405.9000	74.2012
405.8000	74.207
405.7000	74.1968
405.6000	74.1977
405.5000	74.1832
405.4000	74.189
405.3000	74.1717
405.2000	74.1671
405.1000	74.1441
405.0000	74.1314
404.9000	74.1066
404.8000	74.0924
404.7000	74.0638
404.6000	74.0483
404.5000	74.015
404.4000	73.9891
404.3000	73.9597
404.2000	73.9386
404.1000	73.9094
404.0000	73.8867
403.9000	73.8558
403.8000	73.8334
403.7000	73.8137
403.6000	73.7971
403.5000	73.7754
403.4000	73.7579
403.3000	73.7389
403.2000	73.7332
403.1000	73.7272
403.0000	73.7229
402.9000	73.7218
402.8000	73.7236
402.7000	73.7253
402.6000	73.732
402.5000	73.7374
402.4000	73.7449
402.3000	73.7577
402.2000	73.7601
402.1000	73.7696
402.0000	73.7793
401.9000	73.7923
401.8000	73.7992
401.7000	73.8149
401.6000	73.8197
401.5000	73.8292
401.4000	73.8261
401.3000	73.8349
401.2000	73.8365
401.1000	73.8445
401.0000	73.8403
400.9000	73.8425
400.8000	73.8306
400.7000	73.8271
400.6000	73.8138
400.5000	73.8059
400.4000	73.7862
400.3000	73.7775
400.2000	73.7566
400.1000	73.7472
400.0000	73.7165
399.9000	73.7033
399.8000	73.6802
399.7000	73.6683
399.6000	73.641
399.5000	73.6346
399.4000	73.6116
399.3000	73.6042
399.2000	73.5813
399.1000	73.5744
399.0000	73.5551
398.9000	73.5485
398.8000	73.5275
398.7000	73.5288
398.6000	73.5156
398.5000	73.5102
398.4000	73.4966
398.3000	73.5007
398.2000	73.4899
398.1000	73.4922
398.0000	73.4804
397.9000	73.4766
397.8000	73.4591
397.7000	73.4547
397.6000	73.4383
397.5000	73.4364
397.4000	73.4174
397.3000	73.4105
397.2000	73.3935
397.1000	73.3849
397.0000	73.3644
396.9000	73.3511
396.8000	73.326
396.7000	73.3107
396.6000	73.2825
396.5000	73.2652
396.4000	73.2409
396.3000	73.217
396.2000	73.1817
396.1000	73.1611
396.0000	73.1282
395.9000	73.1026
395.8000	73.0726
395.7000	73.0481
395.6000	73.0205
395.5000	72.9925
395.4000	72.962
395.3000	72.9436
395.2000	72.9148
395.1000	72.8874
395.0000	72.8628
394.9000	72.8406
394.8000	72.8158
394.7000	72.7936
394.6000	72.7728
394.5000	72.7553
394.4000	72.7347
394.3000	72.7155
394.2000	72.6934
394.1000	72.6762
394.0000	72.6514
393.9000	72.628
393.8000	72.6036
393.7000	72.5846
393.6000	72.5707
393.5000	72.5502
393.4000	72.5254
393.3000	72.5001
393.2000	72.4705
393.1000	72.443
393.0000	72.4148
392.9000	72.3821
392.8000	72.3569
392.7000	72.3281
392.6000	72.2961
392.5000	72.2686
392.4000	72.2336
392.3000	72.2005
392.2000	72.1661
392.1000	72.1309
392.0000	72.0991
391.9000	72.0689
391.8000	72.0338
391.7000	72.0019
391.6000	71.9707
391.5000	71.942
391.4000	71.9093
391.3000	71.8765
391.2000	71.8453
391.1000	71.8109
391.0000	71.7811
390.9000	71.7489
390.8000	71.719
390.7000	71.6936
390.6000	71.665
390.5000	71.6365
390.4000	71.6039
390.3000	71.5754
390.2000	71.5469
390.1000	71.5196
390.0000	71.4886
389.9000	71.4635
389.8000	71.4387
389.7000	71.4127
389.6000	71.3821
389.5000	71.3528
389.4000	71.3185
389.3000	71.2861
389.2000	71.2554
389.1000	71.226
389.0000	71.1954
388.9000	71.1655
388.8000	71.1303
388.7000	71.0967
388.6000	71.0638
388.5000	71.0228
388.4000	70.9832
388.3000	70.949
388.2000	70.9115
388.1000	70.8767
388.0000	70.841
387.9000	70.8117
387.8000	70.7768
387.7000	70.7436
387.6000	70.7064
387.5000	70.6698
387.4000	70.6326
387.3000	70.5965
387.2000	70.5584
387.1000	70.5276
387.0000	70.4883
386.9000	70.4541
386.8000	70.4208
386.7000	70.3855
386.6000	70.3489
386.5000	70.3159
386.4000	70.277
386.3000	70.2434
386.2000	70.2088
386.1000	70.1766
386.0000	70.1359
385.9000	70.1014
385.8000	70.0598
385.7000	70.021
385.6000	69.9814
385.5000	69.942
385.4000	69.8986
385.3000	69.8658
385.2000	69.8193
385.1000	69.7741
385.0000	69.7274
384.9000	69.6849
384.8000	69.6402
384.7000	69.5969
384.6000	69.5492
384.5000	69.5054
384.4000	69.4593
384.3000	69.415
384.2000	69.3684
384.1000	69.3265
384.0000	69.2792
383.9000	69.2289
383.8000	69.1821
383.7000	69.1338
383.6000	69.0796
383.5000	69.0309
383.4000	68.9789
383.3000	68.9285
383.2000	68.8783
383.1000	68.8239
383.0000	68.7712
382.9000	68.7155
382.8000	68.6629
382.7000	68.6096
382.6000	68.5551
382.5000	68.4995
382.4000	68.4411
382.3000	68.3862
382.2000	68.3281
382.1000	68.2677
382.0000	68.2119
381.9000	68.1584
381.8000	68.1007
381.7000	68.0433
381.6000	67.9803
381.5000	67.9176
381.4000	67.8575
381.3000	67.8003
381.2000	67.7376
381.1000	67.6729
381.0000	67.6092
380.9000	67.5405
380.8000	67.4702
380.7000	67.4083
380.6000	67.3356
380.5000	67.2684
380.4000	67.1974
380.3000	67.1286
380.2000	67.0564
380.1000	66.9822
380.0000	66.9022
379.9000	66.8296
379.8000	66.754
379.7000	66.6814
379.6000	66.598
379.5000	66.5194
379.4000	66.4427
379.3000	66.3626
379.2000	66.2823
379.1000	66.1996
379.0000	66.1127
378.9000	66.032
378.8000	65.9444
378.7000	65.8595
378.6000	65.7736
378.5000	65.6826
378.4000	65.5895
378.3000	65.4965
378.2000	65.4019
378.1000	65.302
378.0000	65.2042
377.9000	65.1091
377.8000	65.0009
377.7000	64.9001
377.6000	64.7959
377.5000	64.6908
377.4000	64.5858
377.3000	64.4792
377.2000	64.3702
377.1000	64.2601
377.0000	64.1459
376.9000	64.0336
376.8000	63.9212
376.7000	63.8081
376.6000	63.69
376.5000	63.5713
376.4000	63.4529
376.3000	63.3306
376.2000	63.2014
376.1000	63.0787
376.0000	62.9416
375.9000	62.8136
375.8000	62.681
375.7000	62.543
375.6000	62.4021
375.5000	62.2578
375.4000	62.1082
375.3000	61.9604
375.2000	61.8084
375.1000	61.6586
375.0000	61.4959
374.9000	61.3333
374.8000	61.16
374.7000	60.9869
374.6000	60.812
374.5000	60.6394
374.4000	60.4567
374.3000	60.2715
374.2000	60.0818
374.1000	59.8853
374.0000	59.6869
373.9000	59.4848
373.8000	59.2747
373.7000	59.0646
373.6000	58.8428
373.5000	58.616
373.4000	58.3826
373.3000	58.1423
373.2000	57.8916
373.1000	57.6402
373.0000	57.3819
372.9000	57.1171
372.8000	56.8455
372.7000	56.5677
372.6000	56.276
372.5000	55.9871
372.4000	55.6842
372.3000	55.3788
372.2000	55.061
372.1000	54.7413
372.0000	54.4087
371.9000	54.0698
371.8000	53.7173
371.7000	53.3624
371.6000	52.996
371.5000	52.6261
371.4000	52.2473
371.3000	51.8549
371.2000	51.452
371.1000	51.0408
371.0000	50.6126
370.9000	50.1875
370.8000	49.7441
370.7000	49.2966
370.6000	48.8347
370.5000	48.3692
370.4000	47.8868
370.3000	47.4014
370.2000	46.8983
370.1000	46.3903
370.0000	43.3628
369.9000	42.8262
369.8000	42.2796
369.7000	41.724
369.6000	41.157
369.5000	40.5815
369.4000	40.001
369.3000	39.4034
369.2000	38.8024
369.1000	38.1919
369.0000	37.5785
368.9000	36.9518
368.8000	36.3221
368.7000	35.6846
368.6000	35.0379
368.5000	34.3872
368.4000	33.7311
368.3000	33.0699
368.2000	32.4065
368.1000	31.7338
368.0000	31.0579
367.9000	30.3823
367.8000	29.7053
367.7000	29.0248
367.6000	28.3445
367.5000	27.6628
367.4000	26.9828
367.3000	26.2991
367.2000	25.6172
367.1000	24.9363
367.0000	24.2632
366.9000	23.5916
366.8000	22.9241
366.7000	22.2559
366.6000	21.5961
366.5000	20.942
366.4000	20.2958
366.3000	19.653
366.2000	19.0159
366.1000	18.3893
366.0000	17.7689
365.9000	17.1585
365.8000	16.5525
365.7000	15.9563
365.6000	15.3712
365.5000	14.7946
365.4000	14.2328
365.3000	13.68
365.2000	13.1381
365.1000	12.6019
365.0000	12.0795
364.9000	11.5701
364.8000	11.074
364.7000	10.5885
364.6000	10.1155
364.5000	9.65236
364.4000	9.20342
364.3000	8.76512
364.2000	8.33858
364.1000	7.92559
364.0000	7.52569
363.9000	7.13825
363.8000	6.76257
363.7000	6.39854
363.6000	6.04837
363.5000	5.70999
363.4000	5.38515
363.3000	5.07049
363.2000	4.77001
363.1000	4.48006
363.0000	4.20346
362.9000	3.93789
362.8000	3.68328
362.7000	3.43774
362.6000	3.206
362.5000	2.98467
362.4000	2.7761
362.3000	2.57668
362.2000	2.38615
362.1000	2.20619
362.0000	2.03597
361.9000	1.87628
361.8000	1.72581
361.7000	1.58397
361.6000	1.45098
361.5000	1.32593
361.4000	1.20917
361.3000	1.10098
361.2000	1.00055
361.1000	0.906711
361.0000	0.820083
360.9000	0.739959
360.8000	0.666235
360.7000	0.597976
360.6000	0.535334
360.5000	0.478002
360.4000	0.425758
360.3000	0.378443
360.2000	0.335309
360.1000	0.296232
360.0000	0.260719
359.9000	0.228698
359.8000	0.200225
359.7000	0.174673
359.6000	0.152147
359.5000	0.132443
359.4000	0.115104
359.3000	0.0997407
359.2000	0.086036
359.1000	0.0740827
359.0000	0.0638279
358.9000	0.0548991
358.8000	0.0471726
358.7000	0.0403599
358.6000	0.0346043
358.5000	0.0296357
358.4000	0.0255345
358.3000	0.0221095
358.2000	0.0192861
358.1000	0.0169527
358.0000	0.0149572
357.9000	0.0132626
357.8000	0.0119436
357.7000	0.0107382
357.6000	0.00979476
357.5000	0.00900175
357.4000	0.00835833
357.3000	0.00782867
357.2000	0.0073753
357.1000	0.00704402
357.0000	0.006749
356.9000	0.00649136
356.8000	0.00626966
356.7000	0.00608472
356.6000	0.0059358
356.5000	0.00575207
356.4000	0.00564002
356.3000	0.00552874
356.2000	0.00545349
356.1000	0.0053788
356.0000	0.00523165
355.9000	0.00512088
355.8000	0.00508225
355.7000	0.00493551
355.6000	0.00486091
355.5000	0.00478641
355.4000	0.00478397
355.3000	0.00474614
355.2000	0.00467229
355.1000	0.00456198
355.0000	0.00448768
354.9000	0.00444978
354.8000	0.00437557
354.7000	0.00437415
354.6000	0.00430018
354.5000	0.00422639
354.4000	0.00411684
354.3000	0.00407968
354.2000	0.00400599
354.1000	0.00400412
354.0000	0.00400223
353.9000	0.00396497
353.8000	0.0039272
353.7000	0.00385425
353.6000	0.00381692
353.5000	0.00381595
353.4000	0.00374236
353.3000	0.00377674
353.2000	0.00370376
353.1000	0.00363123
353.0000	0.00359404
352.9000	0.00355699
352.8000	0.00359063
352.7000	0.0035892
352.6000	0.00351617
352.5000	0.00355066
352.4000	0.00351354
352.3000	0.00351279
352.2000	0.00347596
352.1000	0.0034746
352.0000	0.0034733
351.9000	0.00347235
351.8000	0.00343565
351.7000	0.0033636
351.6000	0.00329144
351.5000	0.00325488
351.4000	0.00325366
351.3000	0.00328831
351.2000	0.00332288
351.1000	0.0033219
351.0000	0.00328534
350.9000	0.00324866
350.8000	0.00317688
350.7000	0.00314086
350.6000	0.00310461
350.5000	0.00310345
350.4000	0.00313757
350.3000	0.00303025
350.2000	0.00299469
350.1000	0.00295896
350.0000	0.00288796
349.9000	0.00292273
349.8000	0.0028864
349.7000	0.00285084
349.6000	0.00281516
349.5000	0.00281482
349.4000	0.00277934
349.3000	0.00274349
349.2000	0.00270762
349.1000	0.00263593
349.0000	0.00256427
348.9000	0.002528
348.8000	0.00249211
348.7000	0.00249166
348.6000	0.00252649
348.5000	0.00249093
348.4000	0.00252583
348.3000	0.00249031
348.2000	0.00245509
348.1000	0.00245494
348.0000	0.00241894
347.9000	0.00241835
347.8000	0.00241758
347.7000	0.00241766
347.6000	0.00241649
347.5000	0.00241594
347.4000	0.00237986
347.3000	0.00245017
347.2000	0.00244984
347.1000	0.00252011
347.0000	0.00255505
346.9000	0.0025197
346.8000	0.00258894
346.7000	0.00255322
346.6000	0.00251747
346.5000	0.00255205
346.4000	0.00251629
346.3000	0.00248111
346.2000	0.00248059
346.1000	0.00251565
346.0000	0.00255032
345.9000	0.00255033
345.8000	0.00251509
345.7000	0.00251502
345.6000	0.00254972
345.5000	0.00258433
345.4000	0.00258363
345.3000	0.00258305
345.2000	0.00258229
345.1000	0.00261715
345.0000	0.00261656
344.9000	0.00258077
344.8000	0.00261521
344.7000	0.00261503
344.6000	0.00265065
344.5000	0.00261546
344.4000	0.0026504
344.3000	0.00261485
344.2000	0.0026849
344.1000	0.00268444
344.0000	0.00264913
343.9000	0.00261409
343.8000	0.00257845
343.7000	0.00261325
343.6000	0.00261319
343.5000	0.00257813
343.4000	0.00254286
343.3000	0.00247244
343.2000	0.00247177
343.1000	0.00247131
343.0000	0.002436
342.9000	0.00243535
342.8000	0.00236544
342.7000	0.00240037
342.6000	0.00246992
342.5000	0.00246967
342.4000	0.00246902
342.3000	0.00243434
342.2000	0.00239947
342.1000	0.00243466
342.0000	0.00239922
341.9000	0.00232924
341.8000	0.00225874
341.7000	0.00229382
341.6000	0.00222387
341.5000	0.00218903
341.4000	0.00215344
341.3000	0.00218796
341.2000	0.00211803
341.1000	0.00215291
341.0000	0.00211735
340.9000	0.00208207
340.8000	0.002117
340.7000	0.00215159
340.6000	0.00215123
340.5000	0.0021855
340.4000	0.00218544
340.3000	0.00222011
340.2000	0.00228938
340.1000	0.00235867
340.0000	0.0114076
339.9000	0.0114861
339.8000	0.0114478
339.7000	0.011371
339.6000	0.0113308
339.5000	0.0113294
339.4000	0.0112917
339.3000	0.0112511
339.2000	0.0112117
339.1000	0.0112096
339.0000	0.0111696
338.9000	0.0111691
338.8000	0.0111686
338.7000	0.0110934
338.6000	0.0110557
338.5000	0.0110549
338.4000	0.0110552
338.3000	0.0110171
338.2000	0.0110186
338.1000	0.0110194
338.0000	0.0109436
337.9000	0.0108275
337.8000	0.0108272
337.7000	0.0109032
337.6000	0.0108645
337.5000	0.0108276
337.4000	0.0107523
337.3000	0.010637
337.2000	0.0107146
337.1000	0.0105999
337.0000	0.010602
336.9000	0.0105631
336.8000	0.0105249
336.7000	0.0104475
336.6000	0.0104088
336.5000	0.0104475
336.4000	0.0103711
336.3000	0.0103719
336.2000	0.0103313
336.1000	0.0102549
336.0000	0.0102559
335.9000	0.0102571
335.8000	0.0102187
335.7000	0.0101411
335.6000	0.0101025
335.5000	0.0101398
335.4000	0.0101392
335.3000	0.0100625
335.2000	0.00998641
335.1000	0.00998658
335.0000	0.00998481
334.9000	0.00990777
334.8000	0.00990607
334.7000	0.00994484
334.6000	0.00982981
334.5000	0.00975472
334.4000	0.00971699
334.3000	0.00967813
334.2000	0.00963911
334.1000	0.00963807
334.0000	0.00955889
333.9000	0.00959579
333.8000	0.00955459
333.7000	0.00947662
333.6000	0.00955387
333.5000	0.00955417
333.4000	0.00947816
333.3000	0.00939947
333.2000	0.00932247
333.1000	0.00924495
333.0000	0.00912973
332.9000	0.00912952
332.8000	0.00905159
332.7000	0.00901133
332.6000	0.00897427
332.5000	0.00897565
332.4000	0.00893588
332.3000	0.00889751
332.2000	0.00882101
332.1000	0.00882243
332.0000	0.00882286
331.9000	0.00878375
331.8000	0.00874584
331.7000	0.00878403
331.6000	0.00874555
331.5000	0.00874589
331.4000	0.00874472
331.3000	0.00870621
331.2000	0.00874622
331.1000	0.00866817
331.0000	0.00870646
330.9000	0.00866904
330.8000	0.0086317
330.7000	0.00866991
330.6000	0.00867036
330.5000	0.00867211
330.4000	0.0085948
330.3000	0.00855645
330.2000	0.00855598
330.1000	0.00848101
330.0000	0.00851952
329.9000	0.00852042
329.8000	0.0085209
329.7000	0.00855896
329.6000	0.0084831
329.5000	0.00855888
329.4000	0.00855839
329.3000	0.00851975
329.2000	0.00852099
329.1000	0.0084833
329.0000	0.00844515
328.9000	0.00844564
328.8000	0.00848389
328.7000	0.008446
328.6000	0.00848423
328.5000	0.00837065
328.4000	0.00837118
328.3000	0.00825705
328.2000	0.00821917
328.1000	0.00818142
328.0000	0.00818123
327.9000	0.00818205
327.8000	0.00810607
327.7000	0.00814413
327.6000	0.00814423
327.5000	0.00810606
327.4000	0.00810659
327.3000	0.00814442
327.2000	0.00810716
327.1000	0.00806978
327.0000	0.00806999
326.9000	0.00806991
326.8000	0.00806965
326.7000	0.00799266
326.6000	0.00810591
326.5000	0.00806841
326.4000	0.00810688
326.3000	0.00803192
326.2000	0.00799424
326.1000	0.00799401
326.0000	0.00795551
325.9000	0.00791729
325.8000	0.00795656
325.7000	0.00795578
325.6000	0.00784099
325.5000	0.00791631
325.4000	0.00787746
325.3000	0.00791516
325.2000	0.00795202
325.1000	0.00799003
325.0000	0.00806605
324.9000	0.00802781
324.8000	0.00795122
324.7000	0.00802638
324.6000	0.0080261
324.5000	0.00798784
324.4000	0.00794957
324.3000	0.00791141
324.2000	0.00791056
324.1000	0.00787228
324.0000	0.00783368
323.9000	0.00783284
323.8000	0.00779432
323.7000	0.00786929
323.6000	0.0078309
323.5000	0.00786821
323.4000	0.00771581
323.3000	0.00767624
323.2000	0.00759861
323.1000	0.00755898
323.0000	0.00755861
322.9000	0.00752075
322.8000	0.0075203
322.7000	0.00751976
322.6000	0.00748006
322.5000	0.00744065
322.4000	0.00743986
322.3000	0.00740116
322.2000	0.0073625
322.1000	0.00739892
322.0000	0.0073224
321.9000	0.00732091
321.8000	0.00720606
321.7000	0.00720375
321.6000	0.00716509
321.5000	0.00708906
321.4000	0.00705017
321.3000	0.00704883
321.2000	0.00700962
321.1000	0.00693328
321.0000	0.00685594
320.9000	0.00685412
320.8000	0.00685281
320.7000	0.00681417
320.6000	0.00685097
320.5000	0.00677418
320.4000	0.0068104
320.3000	0.00673348
320.2000	0.00684501
320.1000	0.00684425
320.0000	0.00684407
319.9000	0.00688132
319.8000	0.00680429
319.7000	0.00676441
319.6000	0.00668706
319.5000	0.00664744
319.4000	0.00657077
319.3000	0.00653166
319.2000	0.00653024
319.1000	0.00641571
319.0000	0.0063773
318.9000	0.00633897
318.8000	0.00630064
318.7000	0.00622482
318.6000	0.00622395
318.5000	0.00611097
318.4000	0.00610945
318.3000	0.00610739
318.2000	0.0060674
318.1000	0.00602787
318.0000	0.00610213
317.9000	0.0061758
317.8000	0.00617548
317.7000	0.00613747
317.6000	0.00609844
317.5000	0.00605961
317.4000	0.00605785
317.3000	0.00605704
317.2000	0.0059813
317.1000	0.00609323
317.0000	0.00598056
316.9000	0.00597913
316.8000	0.00597729
316.7000	0.0059002
316.6000	0.00586168
316.5000	0.00586059
316.4000	0.00586034
316.3000	0.0058227
316.2000	0.00585885
316.1000	0.00589594
316.0000	0.00585769
315.9000	0.00593152
315.8000	0.00593062
315.7000	0.00592965
315.6000	0.00589123
315.5000	0.00589008
315.4000	0.00588914
315.3000	0.00588807
315.2000	0.00585013
315.1000	0.0057749
315.0000	0.00581345
314.9000	0.00581364
314.8000	0.00577585
314.7000	0.00577515
314.6000	0.00577408
314.5000	0.00569925
314.4000	0.0057363
314.3000	0.00569909
314.2000	0.00562483
314.1000	0.00558743
314.0000	0.00558675
313.9000	0.00551165
313.8000	0.00551084
313.7000	0.00551068
313.6000	0.00554784
313.5000	0.00554831
313.4000	0.00558567
313.3000	0.00558592
313.2000	0.00558561
313.1000	0.00562217
313.0000	0.00562268
312.9000	0.00554793
312.8000	0.00554844
312.7000	0.00547416
312.6000	0.0054367
312.5000	0.00539949
312.4000	0.00539941
312.3000	0.00547402
312.2000	0.00539933
312.1000	0.00547397
312.0000	0.00551201
311.9000	0.00558728
311.8000	0.00551126
311.7000	0.00547335
311.6000	0.00547316
311.5000	0.00547345
311.4000	0.00547395
311.3000	0.00554885
311.2000	0.00554954
311.1000	0.00554993
311.0000	0.00554986
310.9000	0.00551201
310.8000	0.00551246
310.7000	0.00551183
310.6000	0.00551226
310.5000	0.00547553
310.4000	0.00547615
310.3000	0.00547622
310.2000	0.00551381
310.1000	0.00551428
310.0000	0.00555195
309.9000	0.00551545
309.8000	0.005516
309.7000	0.00551739
309.6000	0.005555
309.5000	0.00559235
309.4000	0.00566786
309.3000	0.00566781
309.2000	0.00566783
309.1000	0.00570547
309.0000	0.00570634
308.9000	0.00563207
308.8000	0.00563168
308.7000	0.00563128
308.6000	0.00566948
308.5000	0.00567065
308.4000	0.00567165
308.3000	0.00563504
308.2000	0.0055985
308.1000	0.00556135
308.0000	0.00552384
307.9000	0.00556104
307.8000	0.0055238
307.7000	0.00552395
307.6000	0.00544918
307.5000	0.00545045
307.4000	0.0054507
307.3000	0.00548851
307.2000	0.00548864
307.1000	0.00541469
307.0000	0.00541563
306.9000	0.00537892
306.8000	0.00534149
306.7000	0.00534136
306.6000	0.0053042
306.5000	0.00530318
306.4000	0.00522894
306.3000	0.00522925
306.2000	0.00515481
306.1000	0.00515532
306.0000	0.00515572
305.9000	0.00508102
305.8000	0.00508105
305.7000	0.00515668
305.6000	0.00515732
305.5000	0.0051206
305.4000	0.00512109
305.3000	0.00512086
305.2000	0.00508352
305.1000	0.00504609
305.0000	0.00504568
304.9000	0.00508376
304.8000	0.00512193
304.7000	0.00508435
304.6000	0.00508406
304.5000	0.0051218
304.4000	0.00523531
304.3000	0.00519875
304.2000	0.00516095
304.1000	0.00504849
304.0000	0.00504891
303.9000	0.00508637
303.8000	0.00501111
303.7000	0.00497322
303.6000	0.00493613
303.5000	0.00497394
303.4000	0.00493631
303.3000	0.004899
303.2000	0.00493608
303.1000	0.00489905
303.0000	0.0048607
302.9000	0.00486116
302.8000	0.00482416
302.7000	0.00474986
302.6000	0.00467466
302.5000	0.00463631
302.4000	0.00459865
302.3000	0.00456095
302.2000	0.00452346
302.1000	0.00452355
302.0000	0.00448604
301.9000	0.00444883
301.8000	0.00441187
301.7000	0.00441143
301.6000	0.004448
301.5000	0.00441109
301.4000	0.00437426
301.3000	0.00433694
301.2000	0.0042242
301.1000	0.00422326
301.0000	0.004224
300.9000	0.00429905
300.8000	0.00422387
300.7000	0.00426129
300.6000	0.00429892
300.5000	0.00433669
300.4000	0.0043369
300.3000	0.00429926
300.2000	0.0042986
300.1000	0.00429861
300.0000	0.00426104
