TITLE	12.1_NP_0
DATA TYPE	ULTRAVIOLET SPECTRUM
ORIGIN	JASCO
OWNER	
DATE	21/05/03
TIME	16:12:53
SPECTROMETER/DATA SYSTEM	
RESOLUTION	
DELTAX	-0.1
XUNITS	NANOMETERS
YUNITS	TRANSMITTANCE
FIRSTX	  850.0000
LASTX	  250.0000
NPOINTS	    6001
FIRSTY	    74.87085
MAXY	    80.21142
MINY	     0.00049
XYDATA
850.0000	74.8708
849.9000	74.7391
849.8000	74.6057
849.7000	74.4592
849.6000	74.3248
849.5000	74.1879
849.4000	74.0502
849.3000	73.9122
849.2000	73.7765
849.1000	73.6377
849.0000	73.5023
848.9000	73.3589
848.8000	73.2098
848.7000	73.0612
848.6000	72.9167
848.5000	72.7733
848.4000	72.6297
848.3000	72.4902
848.2000	72.3595
848.1000	72.2136
848.0000	72.0814
847.9000	71.9459
847.8000	71.8022
847.7000	71.6644
847.6000	71.518
847.5000	71.3769
847.4000	71.2358
847.3000	71.1059
847.2000	70.9672
847.1000	70.8412
847.0000	70.7107
846.9000	70.579
846.8000	70.4493
846.7000	70.3147
846.6000	70.1736
846.5000	70.0461
846.4000	69.909
846.3000	69.7811
846.2000	69.6554
846.1000	69.5273
846.0000	69.4079
845.9000	69.2902
845.8000	69.1631
845.7000	69.0374
845.6000	68.921
845.5000	68.8098
845.4000	68.6858
845.3000	68.5686
845.2000	68.4495
845.1000	68.3381
845.0000	68.2318
844.9000	68.1308
844.8000	68.0269
844.7000	67.9264
844.6000	67.8222
844.5000	67.7284
844.4000	67.6341
844.3000	67.5459
844.2000	67.4651
844.1000	67.382
844.0000	67.296
843.9000	67.209
843.8000	67.1384
843.7000	67.0691
843.6000	67.0059
843.5000	66.9361
843.4000	66.8699
843.3000	66.8057
843.2000	66.7516
843.1000	66.6933
843.0000	66.6456
842.9000	66.5947
842.8000	66.549
842.7000	66.4961
842.6000	66.4603
842.5000	66.4162
842.4000	66.3809
842.3000	66.3494
842.2000	66.3182
842.1000	66.2841
842.0000	66.2608
841.9000	66.2414
841.8000	66.2269
841.7000	66.2194
841.6000	66.1998
841.5000	66.1872
841.4000	66.1843
841.3000	66.1852
841.2000	66.1776
841.1000	66.1773
841.0000	66.1718
840.9000	66.1813
840.8000	66.1983
840.7000	66.212
840.6000	66.2341
840.5000	66.2615
840.4000	66.2836
840.3000	66.3139
840.2000	66.3465
840.1000	66.3764
840.0000	66.4159
839.9000	66.4623
839.8000	66.4983
839.7000	66.5365
839.6000	66.5905
839.5000	66.6475
839.4000	66.7045
839.3000	66.7678
839.2000	66.8267
839.1000	66.8901
839.0000	66.9572
838.9000	67.0209
838.8000	67.0957
838.7000	67.1707
838.6000	67.2441
838.5000	67.3235
838.4000	67.4057
838.3000	67.4893
838.2000	67.579
838.1000	67.6702
838.0000	67.768
837.9000	67.856
837.8000	67.9591
837.7000	68.0554
837.6000	68.1614
837.5000	68.2746
837.4000	68.376
837.3000	68.4973
837.2000	68.6081
837.1000	68.7212
837.0000	68.8481
836.9000	68.972
836.8000	69.1034
836.7000	69.2298
836.6000	69.3559
836.5000	69.4844
836.4000	69.6076
836.3000	69.7504
836.2000	69.8809
836.1000	70.0256
836.0000	70.1612
835.9000	70.3039
835.8000	70.4531
835.7000	70.5864
835.6000	70.7215
835.5000	70.8699
835.4000	71.0076
835.3000	71.1535
835.2000	71.3005
835.1000	71.449
835.0000	71.6053
834.9000	71.7574
834.8000	71.9176
834.7000	72.0675
834.6000	72.2217
834.5000	72.3696
834.4000	72.5216
834.3000	72.6697
834.2000	72.8139
834.1000	72.969
834.0000	73.1336
833.9000	73.2855
833.8000	73.4306
833.7000	73.5793
833.6000	73.7242
833.5000	73.8662
833.4000	74.0083
833.3000	74.1518
833.2000	74.2951
833.1000	74.4316
833.0000	74.5662
832.9000	74.7028
832.8000	74.838
832.7000	74.9725
832.6000	75.1055
832.5000	75.2425
832.4000	75.3663
832.3000	75.4957
832.2000	75.6296
832.1000	75.7582
832.0000	75.8807
831.9000	76.0068
831.8000	76.1255
831.7000	76.2408
831.6000	76.3455
831.5000	76.46
831.4000	76.5751
831.3000	76.6782
831.2000	76.7814
831.1000	76.8678
831.0000	76.9675
830.9000	77.0586
830.8000	77.1458
830.7000	77.2297
830.6000	77.3092
830.5000	77.3843
830.4000	77.4534
830.3000	77.5145
830.2000	77.5821
830.1000	77.6481
830.0000	77.7059
829.9000	77.7611
829.8000	77.8087
829.7000	77.8549
829.6000	77.8951
829.5000	77.9417
829.4000	77.9834
829.3000	78.0103
829.2000	78.0353
829.1000	78.0637
829.0000	78.0928
828.9000	78.1084
828.8000	78.1273
828.7000	78.1387
828.6000	78.1428
828.5000	78.1476
828.4000	78.1509
828.3000	78.1451
828.2000	78.1336
828.1000	78.1162
828.0000	78.1038
827.9000	78.0823
827.8000	78.0499
827.7000	78.0198
827.6000	77.9875
827.5000	77.9349
827.4000	77.8714
827.3000	77.8278
827.2000	77.7742
827.1000	77.7269
827.0000	77.6638
826.9000	77.5833
826.8000	77.5167
826.7000	77.4403
826.6000	77.3603
826.5000	77.2839
826.4000	77.1982
826.3000	77.1091
826.2000	77.0081
826.1000	76.9046
826.0000	76.8061
825.9000	76.7067
825.8000	76.611
825.7000	76.4863
825.6000	76.3698
825.5000	76.2458
825.4000	76.1297
825.3000	76.0201
825.2000	75.8927
825.1000	75.7724
825.0000	75.6448
824.9000	75.5147
824.8000	75.3783
824.7000	75.241
824.6000	75.1108
824.5000	74.9734
824.4000	74.8293
824.3000	74.6846
824.2000	74.5355
824.1000	74.3971
824.0000	74.2499
823.9000	74.1061
823.8000	73.9556
823.7000	73.7989
823.6000	73.6489
823.5000	73.486
823.4000	73.3355
823.3000	73.1828
823.2000	73.0299
823.1000	72.8701
823.0000	72.7109
822.9000	72.5553
822.8000	72.399
822.7000	72.2471
822.6000	72.0891
822.5000	71.9353
822.4000	71.7835
822.3000	71.623
822.2000	71.4619
822.1000	71.3116
822.0000	71.1492
821.9000	71.0003
821.8000	70.8392
821.7000	70.6813
821.6000	70.5234
821.5000	70.377
821.4000	70.2285
821.3000	70.08
821.2000	69.9302
821.1000	69.7866
821.0000	69.6414
820.9000	69.4934
820.8000	69.3432
820.7000	69.2047
820.6000	69.0655
820.5000	68.9233
820.4000	68.7894
820.3000	68.651
820.2000	68.5231
820.1000	68.3941
820.0000	68.276
819.9000	68.1474
819.8000	68.0231
819.7000	67.9058
819.6000	67.786
819.5000	67.6622
819.4000	67.5523
819.3000	67.4431
819.2000	67.3407
819.1000	67.2289
819.0000	67.1249
818.9000	67.0313
818.8000	66.9401
818.7000	66.848
818.6000	66.7541
818.5000	66.6668
818.4000	66.5771
818.3000	66.4997
818.2000	66.4243
818.1000	66.3507
818.0000	66.2823
817.9000	66.2142
817.8000	66.1494
817.7000	66.0878
817.6000	66.0328
817.5000	65.9878
817.4000	65.9426
817.3000	65.8897
817.2000	65.8431
817.1000	65.8081
817.0000	65.7785
816.9000	65.751
816.8000	65.7226
816.7000	65.6991
816.6000	65.6768
816.5000	65.6668
816.4000	65.6528
816.3000	65.6468
816.2000	65.6442
816.1000	65.6456
816.0000	65.6464
815.9000	65.6484
815.8000	65.6542
815.7000	65.6722
815.6000	65.6945
815.5000	65.7133
815.4000	65.7337
815.3000	65.7589
815.2000	65.7923
815.1000	65.8254
815.0000	65.8651
814.9000	65.9027
814.8000	65.956
814.7000	66.0085
814.6000	66.0599
814.5000	66.1153
814.4000	66.1722
814.3000	66.2381
814.2000	66.3071
814.1000	66.3737
814.0000	66.4453
813.9000	66.5206
813.8000	66.6018
813.7000	66.6893
813.6000	66.7734
813.5000	66.8694
813.4000	66.9619
813.3000	67.0538
813.2000	67.1394
813.1000	67.2361
813.0000	67.3375
812.9000	67.4445
812.8000	67.5525
812.7000	67.6654
812.6000	67.7774
812.5000	67.8968
812.4000	68.0128
812.3000	68.1348
812.2000	68.2638
812.1000	68.3862
812.0000	68.5162
811.9000	68.645
811.8000	68.7771
811.7000	68.9142
811.6000	69.0564
811.5000	69.1993
811.4000	69.3477
811.3000	69.4939
811.2000	69.6413
811.1000	69.7891
811.0000	69.9401
810.9000	70.0885
810.8000	70.2397
810.7000	70.3934
810.6000	70.5496
810.5000	70.7072
810.4000	70.8606
810.3000	71.0142
810.2000	71.1671
810.1000	71.3254
810.0000	71.4901
809.9000	71.6442
809.8000	71.8039
809.7000	71.9684
809.6000	72.1313
809.5000	72.2902
809.4000	72.4605
809.3000	72.6271
809.2000	72.787
809.1000	72.9516
809.0000	73.112
808.9000	73.2678
808.8000	73.4327
808.7000	73.5892
808.6000	73.7512
808.5000	73.9145
808.4000	74.071
808.3000	74.2291
808.2000	74.3777
808.1000	74.5201
808.0000	74.6663
807.9000	74.8105
807.8000	74.9503
807.7000	75.0911
807.6000	75.2346
807.5000	75.3672
807.4000	75.4969
807.3000	75.6307
807.2000	75.7587
807.1000	75.8801
807.0000	76.0038
806.9000	76.1183
806.8000	76.2284
806.7000	76.3448
806.6000	76.4522
806.5000	76.5583
806.4000	76.6567
806.3000	76.7578
806.2000	76.8513
806.1000	76.9441
806.0000	77.0328
805.9000	77.1144
805.8000	77.1862
805.7000	77.257
805.6000	77.3208
805.5000	77.3943
805.4000	77.4587
805.3000	77.5101
805.2000	77.5591
805.1000	77.5994
805.0000	77.6463
804.9000	77.6823
804.8000	77.7179
804.7000	77.7417
804.6000	77.7607
804.5000	77.7725
804.4000	77.7834
804.3000	77.7934
804.2000	77.8018
804.1000	77.7905
804.0000	77.7808
803.9000	77.7659
803.8000	77.7429
803.7000	77.7235
803.6000	77.7015
803.5000	77.6697
803.4000	77.6326
803.3000	77.5869
803.2000	77.5344
803.1000	77.4828
803.0000	77.4195
802.9000	77.3584
802.8000	77.2934
802.7000	77.2187
802.6000	77.1441
802.5000	77.0731
802.4000	76.9965
802.3000	76.9135
802.2000	76.8253
802.1000	76.7367
802.0000	76.6392
801.9000	76.5373
801.8000	76.4289
801.7000	76.3236
801.6000	76.2135
801.5000	76.1002
801.4000	75.991
801.3000	75.8728
801.2000	75.7459
801.1000	75.6232
801.0000	75.4902
800.9000	75.3562
800.8000	75.2182
800.7000	75.0776
800.6000	74.9329
800.5000	74.7794
800.4000	74.6263
800.3000	74.4771
800.2000	74.3192
800.1000	74.1548
800.0000	73.9931
799.9000	73.8317
799.8000	73.6689
799.7000	73.4998
799.6000	73.3351
799.5000	73.1638
799.4000	72.9971
799.3000	72.833
799.2000	72.6608
799.1000	72.4923
799.0000	72.3315
798.9000	72.161
798.8000	71.9955
798.7000	71.8273
798.6000	71.6649
798.5000	71.5013
798.4000	71.3404
798.3000	71.1696
798.2000	70.9983
798.1000	70.8303
798.0000	70.6544
797.9000	70.4961
797.8000	70.3287
797.7000	70.1668
797.6000	70.0036
797.5000	69.8387
797.4000	69.6704
797.3000	69.5165
797.2000	69.3635
797.1000	69.2113
797.0000	69.0596
796.9000	68.9136
796.8000	68.7636
796.7000	68.6247
796.6000	68.4843
796.5000	68.3481
796.4000	68.2178
796.3000	68.0753
796.2000	67.9442
796.1000	67.8076
796.0000	67.6848
795.9000	67.561
795.8000	67.442
795.7000	67.3223
795.6000	67.2047
795.5000	67.0885
795.4000	66.9793
795.3000	66.8676
795.2000	66.7629
795.1000	66.6603
795.0000	66.5719
794.9000	66.4783
794.8000	66.3923
794.7000	66.3192
794.6000	66.238
794.5000	66.1688
794.4000	66.0974
794.3000	66.0241
794.2000	65.962
794.1000	65.9014
794.0000	65.8457
793.9000	65.7959
793.8000	65.7463
793.7000	65.7081
793.6000	65.6745
793.5000	65.6404
793.4000	65.6048
793.3000	65.5779
793.2000	65.5534
793.1000	65.5278
793.0000	65.5122
792.9000	65.4956
792.8000	65.4864
792.7000	65.4859
792.6000	65.4852
792.5000	65.4862
792.4000	65.4969
792.3000	65.5039
792.2000	65.5174
792.1000	65.5377
792.0000	65.5569
791.9000	65.5855
791.8000	65.6177
791.7000	65.6562
791.6000	65.6959
791.5000	65.739
791.4000	65.7905
791.3000	65.8449
791.2000	65.8985
791.1000	65.9603
791.0000	66.027
790.9000	66.0988
790.8000	66.1713
790.7000	66.2497
790.6000	66.3336
790.5000	66.4198
790.4000	66.5091
790.3000	66.5989
790.2000	66.6895
790.1000	66.7869
790.0000	66.8949
789.9000	67.0086
789.8000	67.1178
789.7000	67.2308
789.6000	67.3552
789.5000	67.4822
789.4000	67.6038
789.3000	67.7298
789.2000	67.8581
789.1000	67.9957
789.0000	68.1296
788.9000	68.2691
788.8000	68.4141
788.7000	68.5569
788.6000	68.7072
788.5000	68.8578
788.4000	69.006
788.3000	69.154
788.2000	69.3096
788.1000	69.4676
788.0000	69.6269
787.9000	69.7841
787.8000	69.9474
787.7000	70.1102
787.6000	70.2733
787.5000	70.4375
787.4000	70.6091
787.3000	70.7752
787.2000	70.9431
787.1000	71.113
787.0000	71.2892
786.9000	71.4593
786.8000	71.6268
786.7000	71.7955
786.6000	71.9682
786.5000	72.1422
786.4000	72.3059
786.3000	72.4683
786.2000	72.6386
786.1000	72.8075
786.0000	72.9745
785.9000	73.1468
785.8000	73.3143
785.7000	73.4828
785.6000	73.6468
785.5000	73.807
785.4000	73.9621
785.3000	74.1191
785.2000	74.2765
785.1000	74.4358
785.0000	74.5852
784.9000	74.7278
784.8000	74.8846
784.7000	75.0365
784.6000	75.1784
784.5000	75.3201
784.4000	75.4624
784.3000	75.5898
784.2000	75.7184
784.1000	75.8387
784.0000	75.9597
783.9000	76.0863
783.8000	76.2009
783.7000	76.3144
783.6000	76.4293
783.5000	76.5269
783.4000	76.6345
783.3000	76.7364
783.2000	76.8218
783.1000	76.9102
783.0000	76.9946
782.9000	77.0726
782.8000	77.1434
782.7000	77.2096
782.6000	77.2718
782.5000	77.3304
782.4000	77.3827
782.3000	77.4295
782.2000	77.475
782.1000	77.514
782.0000	77.5448
781.9000	77.5783
781.8000	77.6013
781.7000	77.6141
781.6000	77.6334
781.5000	77.6353
781.4000	77.6317
781.3000	77.6269
781.2000	77.614
781.1000	77.6045
781.0000	77.5821
780.9000	77.5555
780.8000	77.5304
780.7000	77.4936
780.6000	77.4493
780.5000	77.4045
780.4000	77.3503
780.3000	77.2905
780.2000	77.2262
780.1000	77.1646
780.0000	77.0835
779.9000	77.0138
779.8000	76.9346
779.7000	76.849
779.6000	76.7562
779.5000	76.6584
779.4000	76.562
779.3000	76.4585
779.2000	76.347
779.1000	76.2383
779.0000	76.1256
778.9000	76.0006
778.8000	75.8769
778.7000	75.748
778.6000	75.6158
778.5000	75.4763
778.4000	75.3377
778.3000	75.1934
778.2000	75.0488
778.1000	74.9058
778.0000	74.757
777.9000	74.6055
777.8000	74.4463
777.7000	74.295
777.6000	74.1311
777.5000	73.9644
777.4000	73.7982
777.3000	73.6379
777.2000	73.4737
777.1000	73.3108
777.0000	73.1385
776.9000	72.9744
776.8000	72.8105
776.7000	72.637
776.6000	72.4651
776.5000	72.2887
776.4000	72.1215
776.3000	71.9504
776.2000	71.7758
776.1000	71.6021
776.0000	71.4319
775.9000	71.2625
775.8000	71.0898
775.7000	70.9196
775.6000	70.7461
775.5000	70.5736
775.4000	70.4088
775.3000	70.2407
775.2000	70.0734
775.1000	69.9128
775.0000	69.7498
774.9000	69.5892
774.8000	69.4254
774.7000	69.2659
774.6000	69.1116
774.5000	68.959
774.4000	68.8122
774.3000	68.6607
774.2000	68.5181
774.1000	68.3744
774.0000	68.2446
773.9000	68.1079
773.8000	67.97
773.7000	67.8435
773.6000	67.713
773.5000	67.5906
773.4000	67.4666
773.3000	67.3499
773.2000	67.2383
773.1000	67.1279
773.0000	67.0228
772.9000	66.9193
772.8000	66.8177
772.7000	66.7255
772.6000	66.6368
772.5000	66.5499
772.4000	66.4568
772.3000	66.3747
772.2000	66.2989
772.1000	66.2201
772.0000	66.1538
771.9000	66.0862
771.8000	66.035
771.7000	65.9788
771.6000	65.9274
771.5000	65.8803
771.4000	65.8395
771.3000	65.8011
771.2000	65.7682
771.1000	65.7404
771.0000	65.7159
770.9000	65.696
770.8000	65.6813
770.7000	65.67
770.6000	65.6685
770.5000	65.6696
770.4000	65.6755
770.3000	65.6822
770.2000	65.692
770.1000	65.7094
770.0000	65.7319
769.9000	65.7603
769.8000	65.7888
769.7000	65.8254
769.6000	65.8636
769.5000	65.9096
769.4000	65.9525
769.3000	66.0092
769.2000	66.0627
769.1000	66.128
769.0000	66.197
768.9000	66.2677
768.8000	66.3423
768.7000	66.4264
768.6000	66.5054
768.5000	66.5977
768.4000	66.69
768.3000	66.7851
768.2000	66.8871
768.1000	66.9914
768.0000	67.0993
767.9000	67.2122
767.8000	67.334
767.7000	67.4487
767.6000	67.573
767.5000	67.6996
767.4000	67.8261
767.3000	67.9585
767.2000	68.0927
767.1000	68.2287
767.0000	68.3752
766.9000	68.5178
766.8000	68.6634
766.7000	68.815
766.6000	68.9691
766.5000	69.1266
766.4000	69.2923
766.3000	69.4473
766.2000	69.6079
766.1000	69.7747
766.0000	69.9451
765.9000	70.1092
765.8000	70.2812
765.7000	70.4521
765.6000	70.6271
765.5000	70.8034
765.4000	70.9778
765.3000	71.1557
765.2000	71.335
765.1000	71.5097
765.0000	71.6898
764.9000	71.8688
764.8000	72.0468
764.7000	72.2292
764.6000	72.4094
764.5000	72.5901
764.4000	72.7736
764.3000	72.9625
764.2000	73.1388
764.1000	73.3186
764.0000	73.4927
763.9000	73.6668
763.8000	73.8447
763.7000	74.0155
763.6000	74.1903
763.5000	74.3623
763.4000	74.5305
763.3000	74.693
763.2000	74.8508
763.1000	75.0089
763.0000	75.167
762.9000	75.3188
762.8000	75.4705
762.7000	75.613
762.6000	75.7602
762.5000	75.9037
762.4000	76.0422
762.3000	76.1739
762.2000	76.2988
762.1000	76.423
762.0000	76.5398
761.9000	76.655
761.8000	76.7617
761.7000	76.8657
761.6000	76.9654
761.5000	77.0647
761.4000	77.1501
761.3000	77.238
761.2000	77.3096
761.1000	77.3866
761.0000	77.4514
760.9000	77.5077
760.8000	77.5601
760.7000	77.6153
760.6000	77.6637
760.5000	77.7033
760.4000	77.7357
760.3000	77.7648
760.2000	77.7922
760.1000	77.8114
760.0000	77.8291
759.9000	77.8359
759.8000	77.84
759.7000	77.832
759.6000	77.8223
759.5000	77.8026
759.4000	77.7798
759.3000	77.7529
759.2000	77.7223
759.1000	77.6755
759.0000	77.628
758.9000	77.5757
758.8000	77.5237
758.7000	77.4602
758.6000	77.3849
758.5000	77.3061
758.4000	77.2177
758.3000	77.1264
758.2000	77.0332
758.1000	76.9361
758.0000	76.8305
757.9000	76.7241
757.8000	76.6114
757.7000	76.4927
757.6000	76.3743
757.5000	76.2533
757.4000	76.1192
757.3000	75.9848
757.2000	75.8422
757.1000	75.704
757.0000	75.5618
756.9000	75.4198
756.8000	75.2739
756.7000	75.1251
756.6000	74.9716
756.5000	74.8102
756.4000	74.6543
756.3000	74.491
756.2000	74.3296
756.1000	74.1685
756.0000	73.9978
755.9000	73.8242
755.8000	73.6536
755.7000	73.4862
755.6000	73.3128
755.5000	73.1338
755.4000	72.9532
755.3000	72.7744
755.2000	72.5948
755.1000	72.4123
755.0000	72.2365
754.9000	72.0652
754.8000	71.8871
754.7000	71.7067
754.6000	71.5257
754.5000	71.3451
754.4000	71.1677
754.3000	70.9922
754.2000	70.8183
754.1000	70.6435
754.0000	70.4709
753.9000	70.3
753.8000	70.1388
753.7000	69.9714
753.6000	69.8072
753.5000	69.6477
753.4000	69.4867
753.3000	69.3247
753.2000	69.1717
753.1000	69.0217
753.0000	68.8756
752.9000	68.7299
752.8000	68.5872
752.7000	68.4479
752.6000	68.3121
752.5000	68.1746
752.4000	68.0513
752.3000	67.9259
752.2000	67.8017
752.1000	67.6837
752.0000	67.5721
751.9000	67.4635
751.8000	67.3579
751.7000	67.2574
751.6000	67.1614
751.5000	67.0729
751.4000	66.9842
751.3000	66.9006
751.2000	66.8248
751.1000	66.7552
751.0000	66.6885
750.9000	66.6284
750.8000	66.5651
750.7000	66.5151
750.6000	66.4678
750.5000	66.4249
750.4000	66.3844
750.3000	66.3473
750.2000	66.3156
750.1000	66.2904
750.0000	66.2706
749.9000	66.2558
749.8000	66.2444
749.7000	66.2389
749.6000	66.2373
749.5000	66.2434
749.4000	66.2532
749.3000	66.2718
749.2000	66.2976
749.1000	66.3231
749.0000	66.3535
748.9000	66.3909
748.8000	66.436
748.7000	66.4847
748.6000	66.5369
748.5000	66.5924
748.4000	66.6589
748.3000	66.7225
748.2000	66.7965
748.1000	66.8776
748.0000	66.9621
747.9000	67.0499
747.8000	67.1428
747.7000	67.2373
747.6000	67.3332
747.5000	67.4397
747.4000	67.5506
747.3000	67.666
747.2000	67.7844
747.1000	67.9074
747.0000	68.0379
746.9000	68.1737
746.8000	68.3032
746.7000	68.4431
746.6000	68.5879
746.5000	68.7323
746.4000	68.8799
746.3000	69.0366
746.2000	69.1938
746.1000	69.3546
746.0000	69.5155
745.9000	69.6783
745.8000	69.8467
745.7000	70.0142
745.6000	70.1892
745.5000	70.364
745.4000	70.541
745.3000	70.7179
745.2000	70.8974
745.1000	71.0796
745.0000	71.2663
744.9000	71.454
744.8000	71.6428
744.7000	71.8241
744.6000	72.0089
744.5000	72.1948
744.4000	72.3856
744.3000	72.5751
744.2000	72.7614
744.1000	72.9528
744.0000	73.1365
743.9000	73.3227
743.8000	73.5059
743.7000	73.6889
743.6000	73.8725
743.5000	74.0541
743.4000	74.2324
743.3000	74.4141
743.2000	74.5871
743.1000	74.7583
743.0000	74.9306
742.9000	75.1022
742.8000	75.2697
742.7000	75.4337
742.6000	75.5997
742.5000	75.7585
742.4000	75.9132
742.3000	76.0703
742.2000	76.2158
742.1000	76.362
742.0000	76.5022
741.9000	76.64
741.8000	76.767
741.7000	76.8863
741.6000	77.0086
741.5000	77.133
741.4000	77.2429
741.3000	77.3443
741.2000	77.4441
741.1000	77.5366
741.0000	77.6181
740.9000	77.6943
740.8000	77.7704
740.7000	77.8366
740.6000	77.902
740.5000	77.956
740.4000	78.0097
740.3000	78.0528
740.2000	78.0962
740.1000	78.1249
740.0000	78.0782
739.9000	78.0997
739.8000	78.1096
739.7000	78.1188
739.6000	78.1187
739.5000	78.1125
739.4000	78.1057
739.3000	78.0812
739.2000	78.0561
739.1000	78.0166
739.0000	77.9828
738.9000	77.9388
738.8000	77.8922
738.7000	77.8346
738.6000	77.7739
738.5000	77.7032
738.4000	77.6252
738.3000	77.5426
738.2000	77.458
738.1000	77.3638
738.0000	77.27
737.9000	77.1681
737.8000	77.0566
737.7000	76.9488
737.6000	76.8364
737.5000	76.7195
737.4000	76.5947
737.3000	76.4609
737.2000	76.3266
737.1000	76.1884
737.0000	76.0517
736.9000	75.9042
736.8000	75.7586
736.7000	75.6029
736.6000	75.4521
736.5000	75.2927
736.4000	75.1343
736.3000	74.9688
736.2000	74.8031
736.1000	74.6343
736.0000	74.4611
735.9000	74.2859
735.8000	74.1093
735.7000	73.9374
735.6000	73.7652
735.5000	73.586
735.4000	73.4032
735.3000	73.2287
735.2000	73.0483
735.1000	72.8736
735.0000	72.6924
734.9000	72.5136
734.8000	72.3302
734.7000	72.1514
734.6000	71.9773
734.5000	71.7999
734.4000	71.6259
734.3000	71.4574
734.2000	71.2863
734.1000	71.1142
734.0000	70.9403
733.9000	70.7761
733.8000	70.6127
733.7000	70.4502
733.6000	70.2927
733.5000	70.1325
733.4000	69.9744
733.3000	69.8244
733.2000	69.6791
733.1000	69.536
733.0000	69.3902
732.9000	69.2533
732.8000	69.1152
732.7000	68.9846
732.6000	68.8574
732.5000	68.7362
732.4000	68.6155
732.3000	68.5009
732.2000	68.3885
732.1000	68.2826
732.0000	68.1783
731.9000	68.0808
731.8000	67.9922
731.7000	67.9053
731.6000	67.8224
731.5000	67.7429
731.4000	67.6722
731.3000	67.6066
731.2000	67.5479
731.1000	67.4916
731.0000	67.4398
730.9000	67.3907
730.8000	67.3529
730.7000	67.3148
730.6000	67.2849
730.5000	67.2612
730.4000	67.2465
730.3000	67.233
730.2000	67.2218
730.1000	67.2185
730.0000	67.221
729.9000	67.2281
729.8000	67.2424
729.7000	67.2601
729.6000	67.2837
729.5000	67.3112
729.4000	67.3451
729.3000	67.3848
729.2000	67.4318
729.1000	67.4855
729.0000	67.5409
728.9000	67.5989
728.8000	67.6606
728.7000	67.7345
728.6000	67.8123
728.5000	67.8933
728.4000	67.9786
728.3000	68.0707
728.2000	68.1667
728.1000	68.2652
728.0000	68.3689
727.9000	68.4799
727.8000	68.598
727.7000	68.7203
727.6000	68.8413
727.5000	68.9699
727.4000	69.1029
727.3000	69.2384
727.2000	69.3783
727.1000	69.5235
727.0000	69.6705
726.9000	69.8268
726.8000	69.9821
726.7000	70.1435
726.6000	70.3017
726.5000	70.4679
726.4000	70.64
726.3000	70.8123
726.2000	70.9838
726.1000	71.1514
726.0000	71.3286
725.9000	71.506
725.8000	71.6855
725.7000	71.8688
725.6000	72.0543
725.5000	72.2364
725.4000	72.4262
725.3000	72.6075
725.2000	72.7922
725.1000	72.979
725.0000	73.1735
724.9000	73.3644
724.8000	73.5495
724.7000	73.7345
724.6000	73.9199
724.5000	74.1104
724.4000	74.2954
724.3000	74.4781
724.2000	74.6623
724.1000	74.8453
724.0000	75.0246
723.9000	75.2067
723.8000	75.3781
723.7000	75.5488
723.6000	75.7203
723.5000	75.89
723.4000	76.0512
723.3000	76.2092
723.2000	76.3689
723.1000	76.5222
723.0000	76.6688
722.9000	76.8193
722.8000	76.9602
722.7000	77.0952
722.6000	77.2247
722.5000	77.3474
722.4000	77.4717
722.3000	77.5871
722.2000	77.6969
722.1000	77.8023
722.0000	77.898
721.9000	77.9907
721.8000	78.0778
721.7000	78.1531
721.6000	78.2218
721.5000	78.289
721.4000	78.3527
721.3000	78.4024
721.2000	78.4504
721.1000	78.4974
721.0000	78.532
720.9000	78.5619
720.8000	78.5796
720.7000	78.5918
720.6000	78.599
720.5000	78.6036
720.4000	78.5985
720.3000	78.5805
720.2000	78.5604
720.1000	78.5352
720.0000	78.5076
719.9000	78.4665
719.8000	78.4246
719.7000	78.3786
719.6000	78.3227
719.5000	78.2583
719.4000	78.1879
719.3000	78.1175
719.2000	78.0367
719.1000	77.9508
719.0000	77.8658
718.9000	77.7643
718.8000	77.6687
718.7000	77.564
718.6000	77.4479
718.5000	77.3353
718.4000	77.2092
718.3000	77.0851
718.2000	76.9526
718.1000	76.8111
718.0000	76.6685
717.9000	76.5179
717.8000	76.372
717.7000	76.2165
717.6000	76.0621
717.5000	75.9019
717.4000	75.7365
717.3000	75.5768
717.2000	75.4067
717.1000	75.2395
717.0000	75.0741
716.9000	74.9022
716.8000	74.7298
716.7000	74.558
716.6000	74.3857
716.5000	74.2125
716.4000	74.039
716.3000	73.8648
716.2000	73.6895
716.1000	73.5115
716.0000	73.337
715.9000	73.1577
715.8000	72.9808
715.7000	72.8057
715.6000	72.6321
715.5000	72.4579
715.4000	72.2834
715.3000	72.1132
715.2000	71.9418
715.1000	71.7715
715.0000	71.6003
714.9000	71.4348
714.8000	71.2746
714.7000	71.1117
714.6000	70.9558
714.5000	70.804
714.4000	70.6517
714.3000	70.5056
714.2000	70.3628
714.1000	70.2213
714.0000	70.0873
713.9000	69.9573
713.8000	69.8317
713.7000	69.7067
713.6000	69.5889
713.5000	69.4753
713.4000	69.3665
713.3000	69.2632
713.2000	69.1659
713.1000	69.0775
713.0000	68.9881
712.9000	68.9081
712.8000	68.8316
712.7000	68.7599
712.6000	68.6926
712.5000	68.6326
712.4000	68.5761
712.3000	68.5217
712.2000	68.4788
712.1000	68.4388
712.0000	68.4059
711.9000	68.3764
711.8000	68.359
711.7000	68.3454
711.6000	68.3315
711.5000	68.3262
711.4000	68.3311
711.3000	68.3337
711.2000	68.3483
711.1000	68.3724
711.0000	68.3994
710.9000	68.4284
710.8000	68.465
710.7000	68.5103
710.6000	68.5598
710.5000	68.6184
710.4000	68.6835
710.3000	68.7543
710.2000	68.8267
710.1000	68.9037
710.0000	68.9917
709.9000	69.0875
709.8000	69.1845
709.7000	69.2866
709.6000	69.3913
709.5000	69.4993
709.4000	69.6144
709.3000	69.7384
709.2000	69.8636
709.1000	69.9933
709.0000	70.1264
708.9000	70.2623
708.8000	70.4015
708.7000	70.5454
708.6000	70.6917
708.5000	70.8428
708.4000	70.9958
708.3000	71.148
708.2000	71.3025
708.1000	71.4667
708.0000	71.6334
707.9000	71.8047
707.8000	71.9784
707.7000	72.1531
707.6000	72.3288
707.5000	72.509
707.4000	72.6864
707.3000	72.87
707.2000	73.0526
707.1000	73.2367
707.0000	73.4276
706.9000	73.6141
706.8000	73.8035
706.7000	73.9908
706.6000	74.1771
706.5000	74.3625
706.4000	74.548
706.3000	74.7302
706.2000	74.9142
706.1000	75.0939
706.0000	75.2713
705.9000	75.4495
705.8000	75.6236
705.7000	75.7915
705.6000	75.9591
705.5000	76.1264
705.4000	76.2866
705.3000	76.4452
705.2000	76.6015
705.1000	76.7558
705.0000	76.9028
704.9000	77.0487
704.8000	77.1898
704.7000	77.3224
704.6000	77.4517
704.5000	77.581
704.4000	77.7049
704.3000	77.8163
704.2000	77.9278
704.1000	78.035
704.0000	78.1367
703.9000	78.2277
703.8000	78.3104
703.7000	78.3934
703.6000	78.4644
703.5000	78.5268
703.4000	78.5892
703.3000	78.6449
703.2000	78.6898
703.1000	78.735
703.0000	78.7645
702.9000	78.7838
702.8000	78.8016
702.7000	78.8147
702.6000	78.8189
702.5000	78.8166
702.4000	78.8069
702.3000	78.7887
702.2000	78.7651
702.1000	78.7347
702.0000	78.6994
701.9000	78.6561
701.8000	78.6075
701.7000	78.5446
701.6000	78.4799
701.5000	78.4086
701.4000	78.3329
701.3000	78.2497
701.2000	78.1624
701.1000	78.0671
701.0000	77.966
700.9000	77.8568
700.8000	77.745
700.7000	77.6258
700.6000	77.5047
700.5000	77.3725
700.4000	77.237
700.3000	77.0974
700.2000	76.9511
700.1000	76.8059
700.0000	76.6536
699.9000	76.4947
699.8000	76.337
699.7000	76.1756
699.6000	76.0071
699.5000	75.8358
699.4000	75.6653
699.3000	75.4958
699.2000	75.3225
699.1000	75.1511
699.0000	74.9766
698.9000	74.7999
698.8000	74.625
698.7000	74.4498
698.6000	74.278
698.5000	74.103
698.4000	73.9308
698.3000	73.7577
698.2000	73.5815
698.1000	73.4098
698.0000	73.2401
697.9000	73.0732
697.8000	72.9052
697.7000	72.7404
697.6000	72.5792
697.5000	72.4176
697.4000	72.2568
697.3000	72.104
697.2000	71.948
697.1000	71.7991
697.0000	71.6527
696.9000	71.5057
696.8000	71.3627
696.7000	71.2282
696.6000	71.0978
696.5000	70.9689
696.4000	70.8413
696.3000	70.7262
696.2000	70.6128
696.1000	70.5018
696.0000	70.3916
695.9000	70.2888
695.8000	70.1966
695.7000	70.1069
695.6000	70.0211
695.5000	69.9414
695.4000	69.8636
695.3000	69.7978
695.2000	69.7344
695.1000	69.6754
695.0000	69.6217
694.9000	69.5741
694.8000	69.5368
694.7000	69.4973
694.6000	69.4659
694.5000	69.4407
694.4000	69.4221
694.3000	69.4122
694.2000	69.4044
694.1000	69.4007
694.0000	69.4078
693.9000	69.416
693.8000	69.4344
693.7000	69.4551
693.6000	69.4838
693.5000	69.52
693.4000	69.5589
693.3000	69.6064
693.2000	69.6572
693.1000	69.7182
693.0000	69.7819
692.9000	69.8478
692.8000	69.9241
692.7000	70.0055
692.6000	70.0887
692.5000	70.1818
692.4000	70.2796
692.3000	70.3862
692.2000	70.4951
692.1000	70.6122
692.0000	70.7353
691.9000	70.8593
691.8000	70.9889
691.7000	71.124
691.6000	71.2671
691.5000	71.4076
691.4000	71.5568
691.3000	71.714
691.2000	71.8694
691.1000	72.0299
691.0000	72.1949
690.9000	72.3649
690.8000	72.5367
690.7000	72.7095
690.6000	72.8835
690.5000	73.0628
690.4000	73.2426
690.3000	73.4272
690.2000	73.6192
690.1000	73.8056
690.0000	73.9956
689.9000	74.1907
689.8000	74.3829
689.7000	74.5752
689.6000	74.7705
689.5000	74.9622
689.4000	75.1572
689.3000	75.3502
689.2000	75.5382
689.1000	75.7306
689.0000	75.9251
688.9000	76.1152
688.8000	76.3031
688.7000	76.4871
688.6000	76.667
688.5000	76.8549
688.4000	77.0346
688.3000	77.2099
688.2000	77.3854
688.1000	77.5569
688.0000	77.7269
687.9000	77.8919
687.8000	78.0543
687.7000	78.2119
687.6000	78.3687
687.5000	78.515
687.4000	78.6537
687.3000	78.7893
687.2000	78.923
687.1000	79.0505
687.0000	79.1704
686.9000	79.281
686.8000	79.3896
686.7000	79.4933
686.6000	79.5896
686.5000	79.6786
686.4000	79.758
686.3000	79.8374
686.2000	79.9059
686.1000	79.9652
686.0000	80.0179
685.9000	80.0683
685.8000	80.1073
685.7000	80.1426
685.6000	80.1683
685.5000	80.1898
685.4000	80.2074
685.3000	80.2114
685.2000	80.2056
685.1000	80.1959
685.0000	80.1763
684.9000	80.152
684.8000	80.1238
684.7000	80.0828
684.6000	80.0361
684.5000	79.9847
684.4000	79.9246
684.3000	79.8585
684.2000	79.7906
684.1000	79.7116
684.0000	79.6258
683.9000	79.5354
683.8000	79.4372
683.7000	79.3333
683.6000	79.2268
683.5000	79.1091
683.4000	78.9883
683.3000	78.867
683.2000	78.7384
683.1000	78.6051
683.0000	78.4658
682.9000	78.3226
682.8000	78.1781
682.7000	78.0264
682.6000	77.8693
682.5000	77.7107
682.4000	77.5507
682.3000	77.3826
682.2000	77.2121
682.1000	77.0455
682.0000	76.8721
681.9000	76.6969
681.8000	76.5224
681.7000	76.3389
681.6000	76.1569
681.5000	75.9746
681.4000	75.7907
681.3000	75.6094
681.2000	75.4263
681.1000	75.2421
681.0000	75.0606
680.9000	74.8773
680.8000	74.6913
680.7000	74.5096
680.6000	74.3302
680.5000	74.1488
680.4000	73.9695
680.3000	73.7952
680.2000	73.624
680.1000	73.4578
680.0000	73.2903
679.9000	73.1291
679.8000	72.9671
679.7000	72.8116
679.6000	72.6565
679.5000	72.5099
679.4000	72.367
679.3000	72.2293
679.2000	72.1005
679.1000	71.9734
679.0000	71.8546
678.9000	71.7422
678.8000	71.6368
678.7000	71.5389
678.6000	71.4417
678.5000	71.3565
678.4000	71.2767
678.3000	71.2008
678.2000	71.1403
678.1000	71.0816
678.0000	71.0344
677.9000	70.9875
677.8000	70.9498
677.7000	70.9195
677.6000	70.8979
677.5000	70.8869
677.4000	70.874
677.3000	70.8738
677.2000	70.8795
677.1000	70.8901
677.0000	70.9125
676.9000	70.9387
676.8000	70.9716
676.7000	71.0084
676.6000	71.0526
676.5000	71.1021
676.4000	71.1596
676.3000	71.2257
676.2000	71.3018
676.1000	71.379
676.0000	71.4605
675.9000	71.5516
675.8000	71.648
675.7000	71.7476
675.6000	71.8551
675.5000	71.9645
675.4000	72.0809
675.3000	72.2004
675.2000	72.325
675.1000	72.4605
675.0000	72.5936
674.9000	72.735
674.8000	72.8787
674.7000	73.0264
674.6000	73.1704
674.5000	73.3221
674.4000	73.4798
674.3000	73.6319
674.2000	73.7936
674.1000	73.9548
674.0000	74.1166
673.9000	74.285
673.8000	74.453
673.7000	74.6216
673.6000	74.7932
673.5000	74.9608
673.4000	75.1369
673.3000	75.3096
673.2000	75.4826
673.1000	75.6545
673.0000	75.8279
672.9000	76.0038
672.8000	76.1711
672.7000	76.3401
672.6000	76.5093
672.5000	76.6761
672.4000	76.8387
672.3000	77.0008
672.2000	77.16
672.1000	77.3138
672.0000	77.4668
671.9000	77.6197
671.8000	77.7644
671.7000	77.903
671.6000	78.038
671.5000	78.1717
671.4000	78.3033
671.3000	78.4255
671.2000	78.5497
671.1000	78.6678
671.0000	78.7757
670.9000	78.8777
670.8000	78.9797
670.7000	79.0716
670.6000	79.1566
670.5000	79.2377
670.4000	79.3114
670.3000	79.3725
670.2000	79.431
670.1000	79.4826
670.0000	79.5284
669.9000	79.5638
669.8000	79.5948
669.7000	79.6168
669.6000	79.6291
669.5000	79.6364
669.4000	79.6383
669.3000	79.6377
669.2000	79.6236
669.1000	79.6049
669.0000	79.5769
668.9000	79.5441
668.8000	79.5033
668.7000	79.464
668.6000	79.413
668.5000	79.359
668.4000	79.2925
668.3000	79.2244
668.2000	79.1467
668.1000	79.0624
668.0000	78.9734
667.9000	78.8826
667.8000	78.784
667.7000	78.6794
667.6000	78.5677
667.5000	78.4512
667.4000	78.3335
667.3000	78.208
667.2000	78.0815
667.1000	77.9438
667.0000	77.8085
666.9000	77.6682
666.8000	77.5263
666.7000	77.3807
666.6000	77.231
666.5000	77.0819
666.4000	76.931
666.3000	76.7714
666.2000	76.6139
666.1000	76.4498
666.0000	76.2888
665.9000	76.127
665.8000	75.965
665.7000	75.8047
665.6000	75.6382
665.5000	75.478
665.4000	75.3147
665.3000	75.1482
665.2000	74.9865
665.1000	74.8276
665.0000	74.6696
664.9000	74.5106
664.8000	74.3541
664.7000	74.2034
664.6000	74.0574
664.5000	73.9121
664.4000	73.769
664.3000	73.6292
664.2000	73.4947
664.1000	73.3597
664.0000	73.2355
663.9000	73.1128
663.8000	72.994
663.7000	72.8784
663.6000	72.7703
663.5000	72.6621
663.4000	72.5603
663.3000	72.4662
663.2000	72.3747
663.1000	72.288
663.0000	72.2043
662.9000	72.1295
662.8000	72.0614
662.7000	71.9975
662.6000	71.9402
662.5000	71.8926
662.4000	71.8455
662.3000	71.804
662.2000	71.7654
662.1000	71.7428
662.0000	71.7199
661.9000	71.7069
661.8000	71.7005
661.7000	71.6983
661.6000	71.7046
661.5000	71.7196
661.4000	71.7411
661.3000	71.7652
661.2000	71.799
661.1000	71.8387
661.0000	71.8796
660.9000	71.9307
660.8000	71.9847
660.7000	72.0501
660.6000	72.1229
660.5000	72.1938
660.4000	72.2767
660.3000	72.3634
660.2000	72.4564
660.1000	72.5569
660.0000	72.66
659.9000	72.7708
659.8000	72.8809
659.7000	72.9991
659.6000	73.1195
659.5000	73.2438
659.4000	73.376
659.3000	73.5083
659.2000	73.6486
659.1000	73.7891
659.0000	73.931
658.9000	74.0842
658.8000	74.2335
658.7000	74.3857
658.6000	74.5351
658.5000	74.6919
658.4000	74.8514
658.3000	75.0073
658.2000	75.1635
658.1000	75.325
658.0000	75.4885
657.9000	75.6543
657.8000	75.8137
657.7000	75.9734
657.6000	76.1305
657.5000	76.2904
657.4000	76.4548
657.3000	76.6101
657.2000	76.7633
657.1000	76.9186
657.0000	77.071
656.9000	77.2198
656.8000	77.3648
656.7000	77.5049
656.6000	77.6494
656.5000	77.7887
656.4000	77.9188
656.3000	78.0451
656.2000	78.1708
656.1000	78.2922
656.0000	78.4099
655.9000	78.5205
655.8000	78.6211
655.7000	78.7204
655.6000	78.8166
655.5000	78.9055
655.4000	78.9906
655.3000	79.0678
655.2000	79.1344
655.1000	79.2008
655.0000	79.2578
654.9000	79.3092
654.8000	79.3543
654.7000	79.394
654.6000	79.424
654.5000	79.4426
654.4000	79.46
654.3000	79.4683
654.2000	79.4736
654.1000	79.4659
654.0000	79.4526
653.9000	79.4312
653.8000	79.4022
653.7000	79.3685
653.6000	79.3275
653.5000	79.2786
653.4000	79.2237
653.3000	79.1596
653.2000	79.0921
653.1000	79.0127
653.0000	78.9341
652.9000	78.8527
652.8000	78.7607
652.7000	78.6632
652.6000	78.5596
652.5000	78.4519
652.4000	78.3401
652.3000	78.2235
652.2000	78.1041
652.1000	77.9741
652.0000	77.8441
651.9000	77.7079
651.8000	77.5678
651.7000	77.4267
651.6000	77.2822
651.5000	77.137
651.4000	76.9868
651.3000	76.8356
651.2000	76.684
651.1000	76.5313
651.0000	76.3748
650.9000	76.217
650.8000	76.0591
650.7000	75.8994
650.6000	75.7398
650.5000	75.5827
650.4000	75.4324
650.3000	75.2806
650.2000	75.1272
650.1000	74.9748
650.0000	74.8267
649.9000	74.6794
649.8000	74.5335
649.7000	74.3882
649.6000	74.2501
649.5000	74.1111
649.4000	73.9758
649.3000	73.8475
649.2000	73.7203
649.1000	73.6002
649.0000	73.4839
648.9000	73.3702
648.8000	73.2586
648.7000	73.1545
648.6000	73.0551
648.5000	72.9625
648.4000	72.8723
648.3000	72.7891
648.2000	72.7139
648.1000	72.6426
648.0000	72.5714
647.9000	72.5117
647.8000	72.4587
647.7000	72.4123
647.6000	72.3727
647.5000	72.3362
647.4000	72.3072
647.3000	72.2856
647.2000	72.2702
647.1000	72.2556
647.0000	72.2536
646.9000	72.2548
646.8000	72.2637
646.7000	72.2775
646.6000	72.2965
646.5000	72.3243
646.4000	72.361
646.3000	72.4012
646.2000	72.4474
646.1000	72.4958
646.0000	72.5549
645.9000	72.6223
645.8000	72.6917
645.7000	72.7654
645.6000	72.8429
645.5000	72.9321
645.4000	73.0254
645.3000	73.1237
645.2000	73.2264
645.1000	73.3364
645.0000	73.4488
644.9000	73.5646
644.8000	73.6853
644.7000	73.8082
644.6000	73.9355
644.5000	74.0683
644.4000	74.1995
644.3000	74.3363
644.2000	74.4747
644.1000	74.6212
644.0000	74.7668
643.9000	74.9143
643.8000	75.0581
643.7000	75.2075
643.6000	75.3572
643.5000	75.5099
643.4000	75.6628
643.3000	75.8158
643.2000	75.9669
643.1000	76.1194
643.0000	76.2691
642.9000	76.4214
642.8000	76.5744
642.7000	76.7217
642.6000	76.8703
642.5000	77.0141
642.4000	77.1555
642.3000	77.2935
642.2000	77.4334
642.1000	77.567
642.0000	77.6977
641.9000	77.8162
641.8000	77.9351
641.7000	78.048
641.6000	78.1592
641.5000	78.2662
641.4000	78.3668
641.3000	78.4581
641.2000	78.5422
641.1000	78.6215
641.0000	78.6944
640.9000	78.7601
640.8000	78.8214
640.7000	78.8792
640.6000	78.929
640.5000	78.9689
640.4000	79.0008
640.3000	79.0334
640.2000	79.0587
640.1000	79.0744
640.0000	79.0844
639.9000	79.0832
639.8000	79.0793
639.7000	79.0718
639.6000	79.0539
639.5000	79.0297
639.4000	78.9989
639.3000	78.9586
639.2000	78.9132
639.1000	78.8597
639.0000	78.7993
638.9000	78.7336
638.8000	78.6608
638.7000	78.5834
638.6000	78.4937
638.5000	78.403
638.4000	78.3066
638.3000	78.2098
638.2000	78.1045
638.1000	77.9919
638.0000	77.8766
637.9000	77.7558
637.8000	77.6334
637.7000	77.5089
637.6000	77.3794
637.5000	77.2419
637.4000	77.1038
637.3000	76.963
637.2000	76.8244
637.1000	76.6792
637.0000	76.5362
636.9000	76.391
636.8000	76.2392
636.7000	76.0861
636.6000	75.9331
636.5000	75.7815
636.4000	75.6305
636.3000	75.4826
636.2000	75.3301
636.1000	75.1828
636.0000	75.0352
635.9000	74.8887
635.8000	74.7459
635.7000	74.6078
635.6000	74.4656
635.5000	74.3285
635.4000	74.1917
635.3000	74.0632
635.2000	73.9406
635.1000	73.8219
635.0000	73.7002
634.9000	73.5884
634.8000	73.4781
634.7000	73.3721
634.6000	73.2726
634.5000	73.1725
634.4000	73.0862
634.3000	73.0053
634.2000	72.9256
634.1000	72.8452
634.0000	72.7785
633.9000	72.7169
633.8000	72.6636
633.7000	72.6079
633.6000	72.5598
633.5000	72.5195
633.4000	72.4954
633.3000	72.4671
633.2000	72.4493
633.1000	72.4362
633.0000	72.4316
632.9000	72.4356
632.8000	72.4389
632.7000	72.4506
632.6000	72.4719
632.5000	72.505
632.4000	72.5365
632.3000	72.5778
632.2000	72.6245
632.1000	72.6782
632.0000	72.7372
631.9000	72.7991
631.8000	72.8658
631.7000	72.9398
631.6000	73.0205
631.5000	73.1055
631.4000	73.196
631.3000	73.2911
631.2000	73.3915
631.1000	73.4962
631.0000	73.6022
630.9000	73.7173
630.8000	73.8368
630.7000	73.9526
630.6000	74.075
630.5000	74.2063
630.4000	74.3409
630.3000	74.4743
630.2000	74.6095
630.1000	74.7483
630.0000	74.8869
629.9000	75.03
629.8000	75.1713
629.7000	75.313
629.6000	75.4554
629.5000	75.6009
629.4000	75.7448
629.3000	75.8832
629.2000	76.0259
629.1000	76.1652
629.0000	76.3071
628.9000	76.4451
628.8000	76.5744
628.7000	76.7085
628.6000	76.8371
628.5000	76.963
628.4000	77.0847
628.3000	77.2038
628.2000	77.3198
628.1000	77.4346
628.0000	77.5411
627.9000	77.6418
627.8000	77.7404
627.7000	77.8356
627.6000	77.9202
627.5000	78.0072
627.4000	78.0814
627.3000	78.151
627.2000	78.2189
627.1000	78.2752
627.0000	78.3311
626.9000	78.3776
626.8000	78.4192
626.7000	78.4517
626.6000	78.4739
626.5000	78.4882
626.4000	78.5042
626.3000	78.5136
626.2000	78.5151
626.1000	78.504
626.0000	78.4927
625.9000	78.4664
625.8000	78.4366
625.7000	78.3967
625.6000	78.3492
625.5000	78.2993
625.4000	78.2402
625.3000	78.1767
625.2000	78.1065
625.1000	78.0298
625.0000	77.9485
624.9000	77.8635
624.8000	77.7692
624.7000	77.6694
624.6000	77.5607
624.5000	77.4512
624.4000	77.3334
624.3000	77.2169
624.2000	77.0916
624.1000	76.9677
624.0000	76.8395
623.9000	76.7083
623.8000	76.5703
623.7000	76.4331
623.6000	76.2856
623.5000	76.1368
623.4000	75.9973
623.3000	75.8515
623.2000	75.7039
623.1000	75.5499
623.0000	75.3997
622.9000	75.2488
622.8000	75.0995
622.7000	74.9496
622.6000	74.8037
622.5000	74.6563
622.4000	74.5084
622.3000	74.3629
622.2000	74.2225
622.1000	74.0795
622.0000	73.9495
621.9000	73.8214
621.8000	73.69
621.7000	73.5626
621.6000	73.4366
621.5000	73.323
621.4000	73.2112
621.3000	73.1081
621.2000	73.0037
621.1000	72.9077
621.0000	72.8135
620.9000	72.725
620.8000	72.6432
620.7000	72.5668
620.6000	72.4963
620.5000	72.4322
620.4000	72.3738
620.3000	72.3185
620.2000	72.272
620.1000	72.2331
620.0000	72.2017
619.9000	72.1765
619.8000	72.1564
619.7000	72.1388
619.6000	72.134
619.5000	72.1334
619.4000	72.1419
619.3000	72.155
619.2000	72.1805
619.1000	72.2081
619.0000	72.241
618.9000	72.2832
618.8000	72.3304
618.7000	72.3853
618.6000	72.4381
618.5000	72.5035
618.4000	72.5774
618.3000	72.6541
618.2000	72.7369
618.1000	72.8255
618.0000	72.9212
617.9000	73.0177
617.8000	73.1201
617.7000	73.2292
617.6000	73.3401
617.5000	73.4564
617.4000	73.5789
617.3000	73.7005
617.2000	73.8214
617.1000	73.9485
617.0000	74.0908
616.9000	74.2225
616.8000	74.3555
616.7000	74.4916
616.6000	74.6277
616.5000	74.7688
616.4000	74.9054
616.3000	75.0465
616.2000	75.1848
616.1000	75.3181
616.0000	75.4531
615.9000	75.5884
615.8000	75.7244
615.7000	75.8585
615.6000	75.9956
615.5000	76.1282
615.4000	76.2481
615.3000	76.3759
615.2000	76.4969
615.1000	76.6129
615.0000	76.7293
614.9000	76.8352
614.8000	76.9393
614.7000	77.04
614.6000	77.1341
614.5000	77.2266
614.4000	77.309
614.3000	77.3893
614.2000	77.4568
614.1000	77.5234
614.0000	77.5828
613.9000	77.6304
613.8000	77.6763
613.7000	77.7081
613.6000	77.737
613.5000	77.7614
613.4000	77.7796
613.3000	77.7895
613.2000	77.7908
613.1000	77.7808
613.0000	77.7683
612.9000	77.7478
612.8000	77.722
612.7000	77.6835
612.6000	77.6408
612.5000	77.5884
612.4000	77.5286
612.3000	77.4638
612.2000	77.3943
612.1000	77.3177
612.0000	77.2347
611.9000	77.1398
611.8000	77.0387
611.7000	76.9336
611.6000	76.8222
611.5000	76.706
611.4000	76.5879
611.3000	76.4629
611.2000	76.3347
611.1000	76.2033
611.0000	76.0696
610.9000	75.9334
610.8000	75.7919
610.7000	75.6484
610.6000	75.4995
610.5000	75.3555
610.4000	75.2066
610.3000	75.0589
610.2000	74.9071
610.1000	74.757
610.0000	74.6085
609.9000	74.4636
609.8000	74.3144
609.7000	74.169
609.6000	74.019
609.5000	73.8723
609.4000	73.7278
609.3000	73.5829
609.2000	73.4433
609.1000	73.3072
609.0000	73.1736
608.9000	73.0386
608.8000	72.9119
608.7000	72.7904
608.6000	72.676
608.5000	72.5618
608.4000	72.4531
608.3000	72.3488
608.2000	72.2513
608.1000	72.1566
608.0000	72.0718
607.9000	71.9935
607.8000	71.9177
607.7000	71.852
607.6000	71.7927
607.5000	71.7382
607.4000	71.6936
607.3000	71.6609
607.2000	71.6313
607.1000	71.6029
607.0000	71.5843
606.9000	71.5745
606.8000	71.5726
606.7000	71.5779
606.6000	71.5885
606.5000	71.6098
606.4000	71.6354
606.3000	71.6675
606.2000	71.7087
606.1000	71.7577
606.0000	71.81
605.9000	71.876
605.8000	71.9421
605.7000	72.0111
605.6000	72.0896
605.5000	72.1812
605.4000	72.2742
605.3000	72.3725
605.2000	72.4704
605.1000	72.5766
605.0000	72.6875
604.9000	72.801
604.8000	72.9224
604.7000	73.0465
604.6000	73.1742
604.5000	73.3029
604.4000	73.4358
604.3000	73.572
604.2000	73.7093
604.1000	73.8487
604.0000	73.9869
603.9000	74.1232
603.8000	74.26
603.7000	74.3993
603.6000	74.5427
603.5000	74.6837
603.4000	74.8214
603.3000	74.9595
603.2000	75.0944
603.1000	75.2297
603.0000	75.3613
602.9000	75.4912
602.8000	75.6159
602.7000	75.7335
602.6000	75.852
602.5000	75.9642
602.4000	76.0743
602.3000	76.1783
602.2000	76.2775
602.1000	76.3717
602.0000	76.4595
601.9000	76.5375
601.8000	76.6106
601.7000	76.6773
601.6000	76.7406
601.5000	76.7959
601.4000	76.8422
601.3000	76.8818
601.2000	76.9187
601.1000	76.9451
601.0000	76.9607
600.9000	76.9727
600.8000	76.9742
600.7000	76.9689
600.6000	76.9556
600.5000	76.9325
600.4000	76.9005
600.3000	76.8634
600.2000	76.8229
600.1000	76.7723
600.0000	76.7125
599.9000	76.6421
599.8000	76.5623
599.7000	76.4813
599.6000	76.3909
599.5000	76.2911
599.4000	76.1852
599.3000	76.0776
599.2000	75.9613
599.1000	75.8387
599.0000	75.7165
598.9000	75.5902
598.8000	75.4547
598.7000	75.3107
598.6000	75.1627
598.5000	75.0123
598.4000	74.8618
598.3000	74.7108
598.2000	74.5586
598.1000	74.4027
598.0000	74.243
597.9000	74.0872
597.8000	73.9295
597.7000	73.7703
597.6000	73.6098
597.5000	73.4453
597.4000	73.2857
597.3000	73.128
597.2000	72.9708
597.1000	72.8205
597.0000	72.675
596.9000	72.5317
596.8000	72.3896
596.7000	72.2536
596.6000	72.1195
596.5000	71.9881
596.4000	71.8675
596.3000	71.7452
596.2000	71.6329
596.1000	71.524
596.0000	71.4244
595.9000	71.3355
595.8000	71.247
595.7000	71.17
595.6000	71.0966
595.5000	71.0281
595.4000	70.9668
595.3000	70.9191
595.2000	70.8748
595.1000	70.8374
595.0000	70.8057
594.9000	70.7887
594.8000	70.776
594.7000	70.7759
594.6000	70.7791
594.5000	70.7922
594.4000	70.8083
594.3000	70.8341
594.2000	70.8678
594.1000	70.9089
594.0000	70.9586
593.9000	71.0168
593.8000	71.0814
593.7000	71.152
593.6000	71.2292
593.5000	71.317
593.4000	71.4154
593.3000	71.5113
593.2000	71.6171
593.1000	71.7262
593.0000	71.8414
592.9000	71.9587
592.8000	72.0863
592.7000	72.2166
592.6000	72.3501
592.5000	72.4854
592.4000	72.6271
592.3000	72.7695
592.2000	72.9117
592.1000	73.0559
592.0000	73.2063
591.9000	73.3486
591.8000	73.4921
591.7000	73.637
591.6000	73.7816
591.5000	73.9238
591.4000	74.0649
591.3000	74.2058
591.2000	74.3471
591.1000	74.4821
591.0000	74.6131
590.9000	74.744
590.8000	74.8691
590.7000	74.9916
590.6000	75.1118
590.5000	75.2204
590.4000	75.3225
590.3000	75.4201
590.2000	75.5129
590.1000	75.599
590.0000	75.6789
589.9000	75.75
589.8000	75.8172
589.7000	75.8765
589.6000	75.9244
589.5000	75.9672
589.4000	76.0005
589.3000	76.0227
589.2000	76.0374
589.1000	76.0472
589.0000	76.0466
588.9000	76.0387
588.8000	76.0253
588.7000	76.0025
588.6000	75.9718
588.5000	75.9366
588.4000	75.8847
588.3000	75.8347
588.2000	75.7717
588.1000	75.7008
588.0000	75.6216
587.9000	75.5333
587.8000	75.4428
587.7000	75.3452
587.6000	75.2413
587.5000	75.1252
587.4000	75.0033
587.3000	74.88
587.2000	74.7515
587.1000	74.6162
587.0000	74.4718
586.9000	74.323
586.8000	74.1766
586.7000	74.0207
586.6000	73.8617
586.5000	73.7034
586.4000	73.5435
586.3000	73.3826
586.2000	73.2184
586.1000	73.054
586.0000	72.889
585.9000	72.7239
585.8000	72.5597
585.7000	72.3955
585.6000	72.2313
585.5000	72.0701
585.4000	71.9169
585.3000	71.7599
585.2000	71.6091
585.1000	71.4608
585.0000	71.3178
584.9000	71.1765
584.8000	71.0354
584.7000	70.9071
584.6000	70.7821
584.5000	70.661
584.4000	70.5447
584.3000	70.4386
584.2000	70.3409
584.1000	70.2509
584.0000	70.1656
583.9000	70.0922
583.8000	70.0207
583.7000	69.9594
583.6000	69.9035
583.5000	69.8565
583.4000	69.819
583.3000	69.7928
583.2000	69.7793
583.1000	69.7643
583.0000	69.7657
582.9000	69.7758
582.8000	69.7941
582.7000	69.8149
582.6000	69.8471
582.5000	69.8883
582.4000	69.9357
582.3000	69.9908
582.2000	70.0553
582.1000	70.127
582.0000	70.2084
581.9000	70.2983
581.8000	70.393
581.7000	70.4942
581.6000	70.6005
581.5000	70.7137
581.4000	70.8324
581.3000	70.9492
581.2000	71.0788
581.1000	71.2155
581.0000	71.354
580.9000	71.491
580.8000	71.6331
580.7000	71.7796
580.6000	71.9269
580.5000	72.0826
580.4000	72.2324
580.3000	72.3838
580.2000	72.5363
580.1000	72.6881
580.0000	72.8377
579.9000	72.988
579.8000	73.1335
579.7000	73.2865
579.6000	73.4277
579.5000	73.5705
579.4000	73.7004
579.3000	73.8333
579.2000	73.9625
579.1000	74.0884
579.0000	74.2091
578.9000	74.3143
578.8000	74.421
578.7000	74.5206
578.6000	74.6144
578.5000	74.6961
578.4000	74.7744
578.3000	74.8457
578.2000	74.9055
578.1000	74.9552
578.0000	75.0002
577.9000	75.0345
577.8000	75.0658
577.7000	75.0809
577.6000	75.0921
577.5000	75.0875
577.4000	75.0762
577.3000	75.0597
577.2000	75.0361
577.1000	75.001
577.0000	74.9589
576.9000	74.9078
576.8000	74.8466
576.7000	74.7786
576.6000	74.7033
576.5000	74.6194
576.4000	74.5251
576.3000	74.4265
576.2000	74.3199
576.1000	74.2101
576.0000	74.0898
575.9000	73.9642
575.8000	73.8323
575.7000	73.6958
575.6000	73.5501
575.5000	73.4019
575.4000	73.2457
575.3000	73.089
575.2000	72.9307
575.1000	72.7666
575.0000	72.6028
574.9000	72.4367
574.8000	72.2722
574.7000	72.1043
574.6000	71.9338
574.5000	71.7613
574.4000	71.5898
574.3000	71.4216
574.2000	71.2517
574.1000	71.0866
574.0000	70.9257
573.9000	70.7634
573.8000	70.6091
573.7000	70.4558
573.6000	70.3035
573.5000	70.1573
573.4000	70.0186
573.3000	69.8857
573.2000	69.7558
573.1000	69.633
573.0000	69.5185
572.9000	69.4143
572.8000	69.3181
572.7000	69.2295
572.6000	69.1488
572.5000	69.0771
572.4000	69.0103
572.3000	68.9582
572.2000	68.9113
572.1000	68.8761
572.0000	68.8531
571.9000	68.8362
571.8000	68.827
571.7000	68.829
571.6000	68.8405
571.5000	68.8618
571.4000	68.8934
571.3000	68.9329
571.2000	68.9775
571.1000	69.0318
571.0000	69.0966
570.9000	69.1663
570.8000	69.2494
570.7000	69.3378
570.6000	69.4318
570.5000	69.5352
570.4000	69.6424
570.3000	69.7633
570.2000	69.8867
570.1000	70.0155
570.0000	70.1463
569.9000	70.2843
569.8000	70.4282
569.7000	70.5725
569.6000	70.7256
569.5000	70.8787
569.4000	71.0365
569.3000	71.1951
569.2000	71.3476
569.1000	71.5026
569.0000	71.6606
568.9000	71.8173
568.8000	71.9759
568.7000	72.1258
568.6000	72.2768
568.5000	72.4242
568.4000	72.571
568.3000	72.7094
568.2000	72.8453
568.1000	72.9772
568.0000	73.1003
567.9000	73.2208
567.8000	73.3333
567.7000	73.4396
567.6000	73.5431
567.5000	73.6353
567.4000	73.7214
567.3000	73.7971
567.2000	73.8646
567.1000	73.9254
567.0000	73.9735
566.9000	74.0138
566.8000	74.0432
566.7000	74.0656
566.6000	74.0774
566.5000	74.0807
566.4000	74.0726
566.3000	74.0575
566.2000	74.0308
566.1000	73.998
566.0000	73.9518
565.9000	73.8976
565.8000	73.8332
565.7000	73.7625
565.6000	73.68
565.5000	73.5935
565.4000	73.4967
565.3000	73.3904
565.2000	73.2812
565.1000	73.1595
565.0000	73.0345
564.9000	72.904
564.8000	72.7671
564.7000	72.6219
564.6000	72.4738
564.5000	72.3197
564.4000	72.1613
564.3000	71.9991
564.2000	71.8326
564.1000	71.6609
564.0000	71.4914
563.9000	71.3139
563.8000	71.1399
563.7000	70.9665
563.6000	70.7924
563.5000	70.6186
563.4000	70.4406
563.3000	70.267
563.2000	70.1002
563.1000	69.9386
563.0000	69.7712
562.9000	69.6088
562.8000	69.458
562.7000	69.3085
562.6000	69.1649
562.5000	69.0309
562.4000	68.9016
562.3000	68.7802
562.2000	68.6646
562.1000	68.5586
562.0000	68.4577
561.9000	68.367
561.8000	68.2855
561.7000	68.2149
561.6000	68.1462
561.5000	68.0882
561.4000	68.0455
561.3000	68.0148
561.2000	67.9885
561.1000	67.9735
561.0000	67.9733
560.9000	67.9783
560.8000	67.9933
560.7000	68.0172
560.6000	68.0537
560.5000	68.0973
560.4000	68.1533
560.3000	68.2188
560.2000	68.2949
560.1000	68.3738
560.0000	68.4667
559.9000	68.5656
559.8000	68.6732
559.7000	68.7833
559.6000	68.9023
559.5000	69.0285
559.4000	69.161
559.3000	69.2997
559.2000	69.4425
559.1000	69.5931
559.0000	69.7437
558.9000	69.9018
558.8000	70.0575
558.7000	70.2199
558.6000	70.3814
558.5000	70.542
558.4000	70.7064
558.3000	70.8692
558.2000	71.0312
558.1000	71.1929
558.0000	71.3507
557.9000	71.5059
557.8000	71.6573
557.7000	71.8066
557.6000	71.9503
557.5000	72.0888
557.4000	72.2203
557.3000	72.3427
557.2000	72.4669
557.1000	72.5762
557.0000	72.6803
556.9000	72.7765
556.8000	72.8643
556.7000	72.9432
556.6000	73.0127
556.5000	73.0753
556.4000	73.1306
556.3000	73.1725
556.2000	73.2023
556.1000	73.2225
556.0000	73.2339
555.9000	73.2319
555.8000	73.2251
555.7000	73.2044
555.6000	73.1697
555.5000	73.1278
555.4000	73.0768
555.3000	73.0187
555.2000	72.9471
555.1000	72.8688
555.0000	72.7802
554.9000	72.6807
554.8000	72.5706
554.7000	72.4551
554.6000	72.3326
554.5000	72.1988
554.4000	72.0609
554.3000	71.9194
554.2000	71.7653
554.1000	71.6087
554.0000	71.4471
553.9000	71.2847
553.8000	71.1171
553.7000	70.9441
553.6000	70.7716
553.5000	70.5936
553.4000	70.4166
553.3000	70.2381
553.2000	70.0598
553.1000	69.8842
553.0000	69.7073
552.9000	69.5397
552.8000	69.3686
552.7000	69.198
552.6000	69.0409
552.5000	68.8841
552.4000	68.7333
552.3000	68.5859
552.2000	68.444
552.1000	68.3105
552.0000	68.1822
551.9000	68.064
551.8000	67.953
551.7000	67.8488
551.6000	67.7568
551.5000	67.6762
551.4000	67.6028
551.3000	67.5351
551.2000	67.48
551.1000	67.4409
551.0000	67.4046
550.9000	67.3843
550.8000	67.3745
550.7000	67.3741
550.6000	67.3869
550.5000	67.4078
550.4000	67.4401
550.3000	67.4825
550.2000	67.5314
550.1000	67.5978
550.0000	67.6736
549.9000	67.7551
549.8000	67.8485
549.7000	67.95
549.6000	68.0596
549.5000	68.1697
549.4000	68.2919
549.3000	68.4236
549.2000	68.558
549.1000	68.7013
549.0000	68.8469
548.9000	68.9994
548.8000	69.1586
548.7000	69.3164
548.6000	69.4828
548.5000	69.6434
548.4000	69.8059
548.3000	69.9724
548.2000	70.1396
548.1000	70.3006
548.0000	70.4653
547.9000	70.6321
547.8000	70.7906
547.7000	70.9444
547.6000	71.097
547.5000	71.242
547.4000	71.3825
547.3000	71.5211
547.2000	71.6457
547.1000	71.7691
547.0000	71.8838
546.9000	71.9908
546.8000	72.0857
546.7000	72.1727
546.6000	72.2502
546.5000	72.3226
546.4000	72.3846
546.3000	72.4312
546.2000	72.474
546.1000	72.5043
546.0000	72.5242
545.9000	72.5321
545.8000	72.5312
545.7000	72.5151
545.6000	72.4909
545.5000	72.4569
545.4000	72.409
545.3000	72.3545
545.2000	72.291
545.1000	72.2153
545.0000	72.132
544.9000	72.0392
544.8000	71.9336
544.7000	71.8219
544.6000	71.7042
544.5000	71.5713
544.4000	71.4364
544.3000	71.298
544.2000	71.1515
544.1000	71.0009
544.0000	70.845
543.9000	70.6835
543.8000	70.5209
543.7000	70.3541
543.6000	70.186
543.5000	70.0137
543.4000	69.8399
543.3000	69.6701
543.2000	69.5005
543.1000	69.3358
543.0000	69.166
542.9000	69.0082
542.8000	68.8461
542.7000	68.6882
542.6000	68.535
542.5000	68.3852
542.4000	68.2425
542.3000	68.1042
542.2000	67.9746
542.1000	67.8511
542.0000	67.7364
541.9000	67.6343
541.8000	67.5365
541.7000	67.4469
541.6000	67.3655
541.5000	67.2963
541.4000	67.2392
541.3000	67.191
541.2000	67.1505
541.1000	67.1215
541.0000	67.1066
540.9000	67.1055
540.8000	67.1138
540.7000	67.1374
540.6000	67.1665
540.5000	67.2098
540.4000	67.2613
540.3000	67.3179
540.2000	67.3916
540.1000	67.4724
540.0000	67.565
539.9000	67.6611
539.8000	67.7656
539.7000	67.8826
539.6000	68.0102
539.5000	68.1405
539.4000	68.2733
539.3000	68.4147
539.2000	68.5625
539.1000	68.711
539.0000	68.8659
538.9000	69.0246
538.8000	69.1856
538.7000	69.3538
538.6000	69.5146
538.5000	69.6836
538.4000	69.8507
538.3000	70.0168
538.2000	70.1844
538.1000	70.3425
538.0000	70.4987
537.9000	70.6557
537.8000	70.8095
537.7000	70.9502
537.6000	71.0855
537.5000	71.216
537.4000	71.3442
537.3000	71.4615
537.2000	71.5731
537.1000	71.6732
537.0000	71.7678
536.9000	71.8491
536.8000	71.9188
536.7000	71.9812
536.6000	72.0317
536.5000	72.0761
536.4000	72.1098
536.3000	72.1288
536.2000	72.1382
536.1000	72.143
536.0000	72.1353
535.9000	72.1124
535.8000	72.0815
535.7000	72.0393
535.6000	71.9845
535.5000	71.9213
535.4000	71.8518
535.3000	71.7683
535.2000	71.6855
535.1000	71.5902
535.0000	71.4828
534.9000	71.3659
534.8000	71.243
534.7000	71.1185
534.6000	70.9869
534.5000	70.8459
534.4000	70.7015
534.3000	70.5567
534.2000	70.4028
534.1000	70.2451
534.0000	70.0868
533.9000	69.9262
533.8000	69.7639
533.7000	69.6076
533.6000	69.4371
533.5000	69.276
533.4000	69.12
533.3000	68.9637
533.2000	68.81
533.1000	68.6582
533.0000	68.5099
532.9000	68.3694
532.8000	68.2347
532.7000	68.1076
532.6000	67.9865
532.5000	67.8761
532.4000	67.7742
532.3000	67.6785
532.2000	67.5927
532.1000	67.5107
532.0000	67.4474
531.9000	67.3911
531.8000	67.3423
531.7000	67.3105
531.6000	67.2852
531.5000	67.2722
531.4000	67.268
531.3000	67.2733
531.2000	67.2954
531.1000	67.3219
531.0000	67.3654
530.9000	67.4187
530.8000	67.4778
530.7000	67.5488
530.6000	67.6302
530.5000	67.724
530.4000	67.8239
530.3000	67.9324
530.2000	68.0486
530.1000	68.1694
530.0000	68.299
529.9000	68.4385
529.8000	68.5846
529.7000	68.7355
529.6000	68.8849
529.5000	69.0412
529.4000	69.1965
529.3000	69.3566
529.2000	69.5183
529.1000	69.6799
529.0000	69.8382
528.9000	70.0006
528.8000	70.1612
528.7000	70.3141
528.6000	70.4675
528.5000	70.6184
528.4000	70.77
528.3000	70.9058
528.2000	71.04
528.1000	71.168
528.0000	71.291
527.9000	71.4058
527.8000	71.5083
527.7000	71.6007
527.6000	71.6864
527.5000	71.7698
527.4000	71.8448
527.3000	71.902
527.2000	71.9532
527.1000	71.9934
527.0000	72.0222
526.9000	72.0377
526.8000	72.0431
526.7000	72.0443
526.6000	72.0298
526.5000	72.0067
526.4000	71.9725
526.3000	71.9305
526.2000	71.8804
526.1000	71.8197
526.0000	71.7495
525.9000	71.6674
525.8000	71.5782
525.7000	71.4793
525.6000	71.3726
525.5000	71.2604
525.4000	71.1445
525.3000	71.0247
525.2000	70.8937
525.1000	70.76
525.0000	70.6241
524.9000	70.4848
524.8000	70.3381
524.7000	70.1852
524.6000	70.0381
524.5000	69.892
524.4000	69.7423
524.3000	69.5962
524.2000	69.4467
524.1000	69.3011
524.0000	69.1592
523.9000	69.0239
523.8000	68.8878
523.7000	68.7582
523.6000	68.6381
523.5000	68.519
523.4000	68.4061
523.3000	68.2992
523.2000	68.2063
523.1000	68.1268
523.0000	68.0488
522.9000	67.978
522.8000	67.9212
522.7000	67.8724
522.6000	67.8351
522.5000	67.8129
522.4000	67.7959
522.3000	67.7885
522.2000	67.8007
522.1000	67.8172
522.0000	67.8427
521.9000	67.8803
521.8000	67.9323
521.7000	67.9953
521.6000	68.0624
521.5000	68.1424
521.4000	68.2345
521.3000	68.3326
521.2000	68.4437
521.1000	68.5568
521.0000	68.6838
520.9000	68.8116
520.8000	68.9463
520.7000	69.0881
520.6000	69.2287
520.5000	69.3805
520.4000	69.5337
520.3000	69.6886
520.2000	69.8432
520.1000	70.0023
520.0000	70.1623
519.9000	70.3187
519.8000	70.4725
519.7000	70.6306
519.6000	70.777
519.5000	70.9229
519.4000	71.0678
519.3000	71.1998
519.2000	71.3351
519.1000	71.4598
519.0000	71.5777
518.9000	71.6811
518.8000	71.7791
518.7000	71.871
518.6000	71.9566
518.5000	72.035
518.4000	72.0995
518.3000	72.1551
518.2000	72.2058
518.1000	72.2462
518.0000	72.2746
517.9000	72.289
517.8000	72.2936
517.7000	72.2892
517.6000	72.2666
517.5000	72.241
517.4000	72.2038
517.3000	72.1641
517.2000	72.112
517.1000	72.0457
517.0000	71.9739
516.9000	71.8917
516.8000	71.8053
516.7000	71.7101
516.6000	71.6017
516.5000	71.4906
516.4000	71.3761
516.3000	71.2578
516.2000	71.1288
516.1000	71.0017
516.0000	70.8745
515.9000	70.7458
515.8000	70.6155
515.7000	70.479
515.6000	70.3468
515.5000	70.2186
515.4000	70.0896
515.3000	69.9579
515.2000	69.8302
515.1000	69.7082
515.0000	69.5929
514.9000	69.4778
514.8000	69.3684
514.7000	69.2643
514.6000	69.1746
514.5000	69.0859
514.4000	69.0066
514.3000	68.934
514.2000	68.8713
514.1000	68.8176
514.0000	68.7715
513.9000	68.7325
513.8000	68.7051
513.7000	68.6902
513.6000	68.687
513.5000	68.695
513.4000	68.7163
513.3000	68.7414
513.2000	68.7808
513.1000	68.8336
513.0000	68.892
512.9000	68.9619
512.8000	69.0383
512.7000	69.1228
512.6000	69.2135
512.5000	69.316
512.4000	69.4286
512.3000	69.5479
512.2000	69.6706
512.1000	69.7999
512.0000	69.9365
511.9000	70.0733
511.8000	70.214
511.7000	70.3608
511.6000	70.5067
511.5000	70.6518
511.4000	70.7997
511.3000	70.9461
511.2000	71.0946
511.1000	71.2402
511.0000	71.3849
510.9000	71.5246
510.8000	71.6583
510.7000	71.7886
510.6000	71.9137
510.5000	72.0389
510.4000	72.1472
510.3000	72.2522
510.2000	72.348
510.1000	72.4419
510.0000	72.5267
509.9000	72.597
509.8000	72.6623
509.7000	72.7163
509.6000	72.7626
509.5000	72.797
509.4000	72.821
509.3000	72.8365
509.2000	72.8428
509.1000	72.8393
509.0000	72.8242
508.9000	72.7971
508.8000	72.7652
508.7000	72.7238
508.6000	72.6722
508.5000	72.6082
508.4000	72.539
508.3000	72.4686
508.2000	72.3857
508.1000	72.2995
508.0000	72.2004
507.9000	72.0995
507.8000	71.9972
507.7000	71.8866
507.6000	71.7737
507.5000	71.6575
507.4000	71.5423
507.3000	71.4228
507.2000	71.3063
507.1000	71.1883
507.0000	71.0742
506.9000	70.9623
506.8000	70.8486
506.7000	70.7395
506.6000	70.6352
506.5000	70.5366
506.4000	70.4452
506.3000	70.3616
506.2000	70.2816
506.1000	70.2105
506.0000	70.1413
505.9000	70.0856
505.8000	70.0387
505.7000	70.0014
505.6000	69.9729
505.5000	69.9503
505.4000	69.9362
505.3000	69.9359
505.2000	69.9459
505.1000	69.9654
505.0000	69.9957
504.9000	70.0265
504.8000	70.0733
504.7000	70.1256
504.6000	70.1911
504.5000	70.2615
504.4000	70.3467
504.3000	70.4389
504.2000	70.5337
504.1000	70.6361
504.0000	70.7428
503.9000	70.8608
503.8000	70.9837
503.7000	71.1034
503.6000	71.2303
503.5000	71.3586
503.4000	71.4897
503.3000	71.6316
503.2000	71.7641
503.1000	71.8991
503.0000	72.03
502.9000	72.1652
502.8000	72.2958
502.7000	72.4195
502.6000	72.5426
502.5000	72.6618
502.4000	72.7751
502.3000	72.8787
502.2000	72.9807
502.1000	73.0789
502.0000	73.1695
501.9000	73.2485
501.8000	73.3211
501.7000	73.3831
501.6000	73.4437
501.5000	73.4925
501.4000	73.5279
501.3000	73.5553
501.2000	73.5737
501.1000	73.5858
501.0000	73.585
500.9000	73.5768
500.8000	73.562
500.7000	73.543
500.6000	73.5092
500.5000	73.4641
500.4000	73.4147
500.3000	73.358
500.2000	73.2956
500.1000	73.2264
500.0000	73.1472
499.9000	73.0656
499.8000	72.9867
499.7000	72.8991
499.6000	72.8057
499.5000	72.7061
499.4000	72.6118
499.3000	72.5147
499.2000	72.4142
499.1000	72.3154
499.0000	72.2195
498.9000	72.1247
498.8000	72.0303
498.7000	71.9395
498.6000	71.8531
498.5000	71.7666
498.4000	71.6878
498.3000	71.6133
498.2000	71.5433
498.1000	71.4854
498.0000	71.4343
497.9000	71.3894
497.8000	71.3495
497.7000	71.3176
497.6000	71.2988
497.5000	71.2872
497.4000	71.2758
497.3000	71.2831
497.2000	71.2923
497.1000	71.3125
497.0000	71.3402
496.9000	71.3779
496.8000	71.4252
496.7000	71.4802
496.6000	71.5391
496.5000	71.6042
496.4000	71.6751
496.3000	71.7603
496.2000	71.8476
496.1000	71.9412
496.0000	72.0338
495.9000	72.1333
495.8000	72.2425
495.7000	72.3452
495.6000	72.4562
495.5000	72.5725
495.4000	72.6877
495.3000	72.8014
495.2000	72.9147
495.1000	73.0256
495.0000	73.1393
494.9000	73.2488
494.8000	73.3607
494.7000	73.4639
494.6000	73.5657
494.5000	73.661
494.4000	73.7545
494.3000	73.8342
494.2000	73.9132
494.1000	73.994
494.0000	74.0618
493.9000	74.119
493.8000	74.1679
493.7000	74.2126
493.6000	74.2523
493.5000	74.284
493.4000	74.3023
493.3000	74.3165
493.2000	74.3209
493.1000	74.3208
493.0000	74.3061
492.9000	74.2903
492.8000	74.2656
492.7000	74.2356
492.6000	74.1982
492.5000	74.143
492.4000	74.0875
492.3000	74.0312
492.2000	73.9711
492.1000	73.9065
492.0000	73.833
491.9000	73.7559
491.8000	73.6819
491.7000	73.6022
491.6000	73.5211
491.5000	73.4381
491.4000	73.3624
491.3000	73.2765
491.2000	73.1973
491.1000	73.1192
491.0000	73.0448
490.9000	72.9773
490.8000	72.9122
490.7000	72.8481
490.6000	72.7911
490.5000	72.7345
490.4000	72.6888
490.3000	72.651
490.2000	72.6147
490.1000	72.5878
490.0000	72.5648
489.9000	72.5514
489.8000	72.5437
489.7000	72.5486
489.6000	72.5562
489.5000	72.5723
489.4000	72.5927
489.3000	72.6228
489.2000	72.6585
489.1000	72.6993
489.0000	72.7433
488.9000	72.8012
488.8000	72.8627
488.7000	72.9276
488.6000	73.0028
488.5000	73.0755
488.4000	73.1563
488.3000	73.239
488.2000	73.3247
488.1000	73.4089
488.0000	73.4966
487.9000	73.5921
487.8000	73.6819
487.7000	73.772
487.6000	73.863
487.5000	73.9565
487.4000	74.047
487.3000	74.1317
487.2000	74.2123
487.1000	74.2909
487.0000	74.3622
486.9000	74.4352
486.8000	74.5004
486.7000	74.5624
486.6000	74.6185
486.5000	74.6715
486.4000	74.7177
486.3000	74.7528
486.2000	74.7896
486.1000	74.82
486.0000	74.8388
485.9000	74.8498
485.8000	74.8546
485.7000	74.8559
485.6000	74.8492
485.5000	74.8389
485.4000	74.8193
485.3000	74.794
485.2000	74.7684
485.1000	74.732
485.0000	74.6897
484.9000	74.6464
484.8000	74.5988
484.7000	74.5452
484.6000	74.4878
484.5000	74.4277
484.4000	74.3687
484.3000	74.3089
484.2000	74.2461
484.1000	74.1801
484.0000	74.118
483.9000	74.0563
483.8000	73.9991
483.7000	73.9418
483.6000	73.8817
483.5000	73.827
483.4000	73.7779
483.3000	73.7301
483.2000	73.6861
483.1000	73.6509
483.0000	73.615
482.9000	73.584
482.8000	73.5565
482.7000	73.5352
482.6000	73.523
482.5000	73.5183
482.4000	73.5152
482.3000	73.5201
482.2000	73.5266
482.1000	73.5392
482.0000	73.5617
481.9000	73.5854
481.8000	73.6172
481.7000	73.6511
481.6000	73.6917
481.5000	73.7313
481.4000	73.7814
481.3000	73.8335
481.2000	73.8926
481.1000	73.9547
481.0000	74.0132
480.9000	74.0777
480.8000	74.143
480.7000	74.2086
480.6000	74.2785
480.5000	74.3512
480.4000	74.4167
480.3000	74.4845
480.2000	74.5489
480.1000	74.6126
480.0000	74.6753
479.9000	74.7341
479.8000	74.7888
479.7000	74.8462
479.6000	74.8935
479.5000	74.9394
479.4000	74.9808
479.3000	75.014
479.2000	75.0424
479.1000	75.0675
479.0000	75.0922
478.9000	75.1079
478.8000	75.1188
478.7000	75.1223
478.6000	75.1221
478.5000	75.1229
478.4000	75.1118
478.3000	75.0978
478.2000	75.0814
478.1000	75.0551
478.0000	75.0329
477.9000	75.0005
477.8000	74.9679
477.7000	74.935
477.6000	74.8994
477.5000	74.8567
477.4000	74.8078
477.3000	74.7605
477.2000	74.7163
477.1000	74.6716
477.0000	74.6224
476.9000	74.5725
476.8000	74.5269
476.7000	74.483
476.6000	74.438
476.5000	74.3947
476.4000	74.3504
476.3000	74.3129
476.2000	74.2798
476.1000	74.2456
476.0000	74.2158
475.9000	74.1885
475.8000	74.1694
475.7000	74.1475
475.6000	74.1292
475.5000	74.1142
475.4000	74.1107
475.3000	74.1068
475.2000	74.1074
475.1000	74.1123
475.0000	74.1246
474.9000	74.1429
474.8000	74.1632
474.7000	74.1851
474.6000	74.2079
474.5000	74.2357
474.4000	74.2711
474.3000	74.3077
474.2000	74.3452
474.1000	74.39
474.0000	74.4322
473.9000	74.4802
473.8000	74.5285
473.7000	74.5747
473.6000	74.6219
473.5000	74.6712
473.4000	74.7144
473.3000	74.762
473.2000	74.8017
473.1000	74.8437
473.0000	74.8868
472.9000	74.9263
472.8000	74.9604
472.7000	74.9916
472.6000	75.0248
472.5000	75.0504
472.4000	75.0779
472.3000	75.0977
472.2000	75.1057
472.1000	75.1156
472.0000	75.122
471.9000	75.1233
471.8000	75.1195
471.7000	75.1093
471.6000	75.1045
471.5000	75.0917
471.4000	75.0741
471.3000	75.0537
471.2000	75.03
471.1000	75.0064
471.0000	74.9744
470.9000	74.9429
470.8000	74.9074
470.7000	74.8739
470.6000	74.8393
470.5000	74.8025
470.4000	74.7671
470.3000	74.7318
470.2000	74.696
470.1000	74.6561
470.0000	74.6169
469.9000	74.5776
469.8000	74.5436
469.7000	74.5106
469.6000	74.4809
469.5000	74.4521
469.4000	74.4258
469.3000	74.3955
469.2000	74.3733
469.1000	74.3512
469.0000	74.3409
468.9000	74.3345
468.8000	74.3251
468.7000	74.3143
468.6000	74.3118
468.5000	74.3147
468.4000	74.3202
468.3000	74.3332
468.2000	74.3421
468.1000	74.354
468.0000	74.3662
467.9000	74.3842
467.8000	74.4013
467.7000	74.4306
467.6000	74.4543
467.5000	74.4816
467.4000	74.5057
467.3000	74.5284
467.2000	74.555
467.1000	74.5868
467.0000	74.6187
466.9000	74.6426
466.8000	74.6718
466.7000	74.6953
466.6000	74.7185
466.5000	74.7389
466.4000	74.7652
466.3000	74.7826
466.2000	74.8008
466.1000	74.811
466.0000	74.8241
465.9000	74.8315
465.8000	74.8359
465.7000	74.8363
465.6000	74.838
465.5000	74.8308
465.4000	74.8207
465.3000	74.8133
465.2000	74.8006
465.1000	74.7851
465.0000	74.7716
464.9000	74.7577
464.8000	74.7337
464.7000	74.7111
464.6000	74.6852
464.5000	74.66
464.4000	74.6309
464.3000	74.6012
464.2000	74.5685
464.1000	74.5421
464.0000	74.5084
463.9000	74.4823
463.8000	74.4555
463.7000	74.4268
463.6000	74.3981
463.5000	74.3692
463.4000	74.3418
463.3000	74.3103
463.2000	74.2853
463.1000	74.2644
463.0000	74.2441
462.9000	74.2263
462.8000	74.2082
462.7000	74.1955
462.6000	74.1822
462.5000	74.1753
462.4000	74.1666
462.3000	74.1614
462.2000	74.1579
462.1000	74.1574
462.0000	74.1579
461.9000	74.1627
461.8000	74.1655
461.7000	74.1772
461.6000	74.1854
461.5000	74.1951
461.4000	74.201
461.3000	74.2086
461.2000	74.2221
461.1000	74.2335
461.0000	74.2502
460.9000	74.2602
460.8000	74.2751
460.7000	74.286
460.6000	74.2945
460.5000	74.3045
460.4000	74.3121
460.3000	74.3204
460.2000	74.3257
460.1000	74.3291
460.0000	74.3344
459.9000	74.3357
459.8000	74.3367
459.7000	74.3386
459.6000	74.3352
459.5000	74.3326
459.4000	74.3254
459.3000	74.3175
459.2000	74.3056
459.1000	74.2943
459.0000	74.2791
458.9000	74.2622
458.8000	74.2475
458.7000	74.2264
458.6000	74.2078
458.5000	74.1893
458.4000	74.1687
458.3000	74.143
458.2000	74.1218
458.1000	74.101
458.0000	74.0769
457.9000	74.0525
457.8000	74.0279
457.7000	74.0006
457.6000	73.9784
457.5000	73.9546
457.4000	73.9317
457.3000	73.913
457.2000	73.8936
457.1000	73.8758
457.0000	73.8584
456.9000	73.8404
456.8000	73.8215
456.7000	73.8089
456.6000	73.7991
456.5000	73.7838
456.4000	73.7766
456.3000	73.7659
456.2000	73.7587
456.1000	73.7512
456.0000	73.7462
455.9000	73.7404
455.8000	73.7404
455.7000	73.7353
455.6000	73.7296
455.5000	73.7344
455.4000	73.734
455.3000	73.7324
455.2000	73.7331
455.1000	73.7318
455.0000	73.7313
454.9000	73.7299
454.8000	73.7291
454.7000	73.7261
454.6000	73.7213
454.5000	73.7247
454.4000	73.7221
454.3000	73.7147
454.2000	73.7085
454.1000	73.7045
454.0000	73.6974
453.9000	73.6815
453.8000	73.6696
453.7000	73.6561
453.6000	73.6395
453.5000	73.6273
453.4000	73.6122
453.3000	73.5984
453.2000	73.5787
453.1000	73.5623
453.0000	73.5451
452.9000	73.5191
452.8000	73.4979
452.7000	73.4812
452.6000	73.4548
452.5000	73.4357
452.4000	73.4099
452.3000	73.3885
452.2000	73.366
452.1000	73.3441
452.0000	73.3239
451.9000	73.2988
451.8000	73.276
451.7000	73.2567
451.6000	73.2357
451.5000	73.214
451.4000	73.1909
451.3000	73.1732
451.2000	73.1552
451.1000	73.1357
451.0000	73.1251
450.9000	73.1063
450.8000	73.0952
450.7000	73.082
450.6000	73.0701
450.5000	73.06
450.4000	73.0508
450.3000	73.0433
450.2000	73.0377
450.1000	73.025
450.0000	73.0155
449.9000	73.0092
449.8000	73.0051
449.7000	73.0004
449.6000	72.9958
449.5000	72.9921
449.4000	72.9852
449.3000	72.979
449.2000	72.9698
449.1000	72.9625
449.0000	72.9515
448.9000	72.9411
448.8000	72.9298
448.7000	72.9173
448.6000	72.8979
448.5000	72.8853
448.4000	72.8701
448.3000	72.8548
448.2000	72.8356
448.1000	72.8112
448.0000	72.785
447.9000	72.7557
447.8000	72.7285
447.7000	72.6995
447.6000	72.6718
447.5000	72.6424
447.4000	72.6176
447.3000	72.5898
447.2000	72.5546
447.1000	72.5186
447.0000	72.491
446.9000	72.4567
446.8000	72.4253
446.7000	72.3904
446.6000	72.3617
446.5000	72.3359
446.4000	72.3066
446.3000	72.2824
446.2000	72.2548
446.1000	72.2319
446.0000	72.21
445.9000	72.1889
445.8000	72.1664
445.7000	72.1411
445.6000	72.1253
445.5000	72.1157
445.4000	72.0989
445.3000	72.0834
445.2000	72.0723
445.1000	72.0617
445.0000	72.0508
444.9000	72.0377
444.8000	72.0313
444.7000	72.0224
444.6000	72.0186
444.5000	72.0119
444.4000	72.0011
444.3000	71.9877
444.2000	71.9811
444.1000	71.9771
444.0000	71.9701
443.9000	71.9596
443.8000	71.952
443.7000	71.947
443.6000	71.9338
443.5000	71.9222
443.4000	71.9061
443.3000	71.8924
443.2000	71.8688
443.1000	71.851
443.0000	71.824
442.9000	71.7939
442.8000	71.7705
442.7000	71.7442
442.6000	71.7125
442.5000	71.682
442.4000	71.6465
442.3000	71.6088
442.2000	71.569
442.1000	71.527
442.0000	71.484
441.9000	71.4405
441.8000	71.3994
441.7000	71.3557
441.6000	71.318
441.5000	71.2739
441.4000	71.239
441.3000	71.2017
441.2000	71.1592
441.1000	71.1249
441.0000	71.0865
440.9000	71.0488
440.8000	71.019
440.7000	70.9911
440.6000	70.959
440.5000	70.9326
440.4000	70.9153
440.3000	70.8971
440.2000	70.8826
440.1000	70.8676
440.0000	70.8506
439.9000	70.8397
439.8000	70.8263
439.7000	70.8189
439.6000	70.8156
439.5000	70.8044
439.4000	70.8003
439.3000	70.7977
439.2000	70.7947
439.1000	70.7904
439.0000	70.7863
438.9000	70.781
438.8000	70.7736
438.7000	70.7673
438.6000	70.7557
438.5000	70.7454
438.4000	70.7354
438.3000	70.7244
438.2000	70.7113
438.1000	70.6976
438.0000	70.6768
437.9000	70.6606
437.8000	70.6366
437.7000	70.6141
437.6000	70.5877
437.5000	70.5543
437.4000	70.5238
437.3000	70.4885
437.2000	70.4443
437.1000	70.4027
437.0000	70.3611
436.9000	70.3187
436.8000	70.2725
436.7000	70.2249
436.6000	70.1752
436.5000	70.1236
436.4000	70.0761
436.3000	70.0288
436.2000	69.984
436.1000	69.9354
436.0000	69.8819
435.9000	69.8348
435.8000	69.796
435.7000	69.7567
435.6000	69.7208
435.5000	69.6864
435.4000	69.6496
435.3000	69.6169
435.2000	69.5939
435.1000	69.5694
435.0000	69.5459
434.9000	69.529
434.8000	69.5125
434.7000	69.4978
434.6000	69.4838
434.5000	69.4741
434.4000	69.4707
434.3000	69.4724
434.2000	69.4641
434.1000	69.4599
434.0000	69.4636
433.9000	69.4662
433.8000	69.4708
433.7000	69.4706
433.6000	69.4724
433.5000	69.472
433.4000	69.476
433.3000	69.4732
433.2000	69.4707
433.1000	69.464
433.0000	69.4585
432.9000	69.4478
432.8000	69.4316
432.7000	69.4117
432.6000	69.3926
432.5000	69.3711
432.4000	69.34
432.3000	69.3053
432.2000	69.2667
432.1000	69.2311
432.0000	69.1841
431.9000	69.1384
431.8000	69.0886
431.7000	69.0354
431.6000	68.9835
431.5000	68.9292
431.4000	68.8729
431.3000	68.8164
431.2000	68.7618
431.1000	68.7025
431.0000	68.6441
430.9000	68.5872
430.8000	68.5348
430.7000	68.4819
430.6000	68.4391
430.5000	68.3946
430.4000	68.3567
430.3000	68.3159
430.2000	68.2753
430.1000	68.247
430.0000	68.2172
429.9000	68.1918
429.8000	68.1743
429.7000	68.1595
429.6000	68.1444
429.5000	68.1392
429.4000	68.1353
429.3000	68.1363
429.2000	68.1387
429.1000	68.1456
429.0000	68.145
428.9000	68.1494
428.8000	68.1579
428.7000	68.1672
428.6000	68.1774
428.5000	68.184
428.4000	68.1943
428.3000	68.2029
428.2000	68.2047
428.1000	68.2062
428.0000	68.2105
427.9000	68.2092
427.8000	68.2049
427.7000	68.195
427.6000	68.1813
427.5000	68.1632
427.4000	68.1501
427.3000	68.1251
427.2000	68.0947
427.1000	68.0642
427.0000	68.0359
426.9000	67.9977
426.8000	67.958
426.7000	67.917
426.6000	67.8743
426.5000	67.8272
426.4000	67.781
426.3000	67.7366
426.2000	67.6876
426.1000	67.6386
426.0000	67.5928
425.9000	67.5499
425.8000	67.5064
425.7000	67.471
425.6000	67.4332
425.5000	67.4009
425.4000	67.3677
425.3000	67.3423
425.2000	67.3192
425.1000	67.3035
425.0000	67.2848
424.9000	67.279
424.8000	67.2712
424.7000	67.2646
424.6000	67.2693
424.5000	67.2767
424.4000	67.2864
424.3000	67.2993
424.2000	67.3125
424.1000	67.325
424.0000	67.3402
423.9000	67.3604
423.8000	67.3813
423.7000	67.4003
423.6000	67.4175
423.5000	67.4321
423.4000	67.4533
423.3000	67.4652
423.2000	67.4775
423.1000	67.488
423.0000	67.4923
422.9000	67.4944
422.8000	67.4883
422.7000	67.4781
422.6000	67.465
422.5000	67.454
422.4000	67.4361
422.3000	67.4092
422.2000	67.3793
422.1000	67.3488
422.0000	67.3126
421.9000	67.2741
421.8000	67.2342
421.7000	67.1863
421.6000	67.1407
421.5000	67.0951
421.4000	67.0497
421.3000	67.0013
421.2000	66.9581
421.1000	66.9114
421.0000	66.8651
420.9000	66.8208
420.8000	66.7831
420.7000	66.7433
420.6000	66.7078
420.5000	66.6757
420.4000	66.6502
420.3000	66.6293
420.2000	66.6063
420.1000	66.5974
420.0000	66.3116
419.9000	66.3018
419.8000	66.2972
419.7000	66.2921
419.6000	66.2993
419.5000	66.3112
419.4000	66.3208
419.3000	66.3385
419.2000	66.357
419.1000	66.3794
419.0000	66.409
418.9000	66.435
418.8000	66.4599
418.7000	66.4804
418.6000	66.5006
418.5000	66.5152
418.4000	66.5248
418.3000	66.5345
418.2000	66.539
418.1000	66.5428
418.0000	66.542
417.9000	66.5363
417.8000	66.5296
417.7000	66.5077
417.6000	66.4867
417.5000	66.4592
417.4000	66.4256
417.3000	66.3886
417.2000	66.3507
417.1000	66.3034
417.0000	66.2513
416.9000	66.2053
416.8000	66.1611
416.7000	66.1092
416.6000	66.0596
416.5000	66.0124
416.4000	65.9633
416.3000	65.9144
416.2000	65.8694
416.1000	65.8314
416.0000	65.7956
415.9000	65.762
415.8000	65.7312
415.7000	65.7071
415.6000	65.685
415.5000	65.6725
415.4000	65.6695
415.3000	65.6662
415.2000	65.665
415.1000	65.6718
415.0000	65.6864
414.9000	65.7014
414.8000	65.7187
414.7000	65.7429
414.6000	65.7718
414.5000	65.8007
414.4000	65.831
414.3000	65.8588
414.2000	65.8898
414.1000	65.9229
414.0000	65.9572
413.9000	65.9867
413.8000	66.0121
413.7000	66.0316
413.6000	66.0533
413.5000	66.0667
413.4000	66.0787
413.3000	66.0858
413.2000	66.0919
413.1000	66.088
413.0000	66.0727
412.9000	66.0595
412.8000	66.0375
412.7000	66.0196
412.6000	65.9926
412.5000	65.9601
412.4000	65.9237
412.3000	65.892
412.2000	65.851
412.1000	65.8163
412.0000	65.7765
411.9000	65.7428
411.8000	65.7074
411.7000	65.6806
411.6000	65.6489
411.5000	65.6236
411.4000	65.6039
411.3000	65.5845
411.2000	65.5786
411.1000	65.5745
411.0000	65.5758
410.9000	65.5822
410.8000	65.592
410.7000	65.6017
410.6000	65.6255
410.5000	65.6541
410.4000	65.6839
410.3000	65.7143
410.2000	65.7525
410.1000	65.7849
410.0000	65.8222
409.9000	65.8627
409.8000	65.9039
409.7000	65.9474
409.6000	65.9806
409.5000	66.0143
409.4000	66.0475
409.3000	66.0743
409.2000	66.0973
409.1000	66.1174
409.0000	66.1327
408.9000	66.1352
408.8000	66.1416
408.7000	66.1448
408.6000	66.1358
408.5000	66.1256
408.4000	66.1091
408.3000	66.0872
408.2000	66.0615
408.1000	66.0311
408.0000	66.0054
407.9000	65.9737
407.8000	65.9349
407.7000	65.9004
407.6000	65.8743
407.5000	65.8459
407.4000	65.8098
407.3000	65.7854
407.2000	65.7585
407.1000	65.7371
407.0000	65.7199
406.9000	65.7078
406.8000	65.7007
406.7000	65.7034
406.6000	65.7098
406.5000	65.717
406.4000	65.7252
406.3000	65.7418
406.2000	65.7685
406.1000	65.7991
406.0000	65.8284
405.9000	65.8639
405.8000	65.9085
405.7000	65.9471
405.6000	65.9868
405.5000	66.0218
405.4000	66.0595
405.3000	66.0954
405.2000	66.125
405.1000	66.1526
405.0000	66.1773
404.9000	66.2082
404.8000	66.2321
404.7000	66.2459
404.6000	66.2633
404.5000	66.2707
404.4000	66.2679
404.3000	66.2702
404.2000	66.2601
404.1000	66.2545
404.0000	66.2454
403.9000	66.2363
403.8000	66.2238
403.7000	66.2081
403.6000	66.2043
403.5000	66.1929
403.4000	66.1812
403.3000	66.169
403.2000	66.165
403.1000	66.1637
403.0000	66.1599
402.9000	66.1632
402.8000	66.1756
402.7000	66.1841
402.6000	66.2041
402.5000	66.2253
402.4000	66.2512
402.3000	66.2809
402.2000	66.3154
402.1000	66.3575
402.0000	66.3887
401.9000	66.4304
401.8000	66.4762
401.7000	66.519
401.6000	66.5569
401.5000	66.6038
401.4000	66.6485
401.3000	66.6906
401.2000	66.7321
401.1000	66.7652
401.0000	66.7985
400.9000	66.8284
400.8000	66.852
400.7000	66.8721
400.6000	66.8901
400.5000	66.9065
400.4000	66.9241
400.3000	66.9272
400.2000	66.9317
400.1000	66.9345
400.0000	66.9387
399.9000	66.9341
399.8000	66.928
399.7000	66.9219
399.6000	66.9149
399.5000	66.9166
399.4000	66.9185
399.3000	66.9183
399.2000	66.9216
399.1000	66.926
399.0000	66.9336
398.9000	66.9373
398.8000	66.9476
398.7000	66.9659
398.6000	66.9873
398.5000	67.001
398.4000	67.0217
398.3000	67.0433
398.2000	67.0705
398.1000	67.1001
398.0000	67.1265
397.9000	67.1539
397.8000	67.1799
397.7000	67.2054
397.6000	67.2332
397.5000	67.2642
397.4000	67.2912
397.3000	67.3174
397.2000	67.3399
397.1000	67.3595
397.0000	67.371
396.9000	67.39
396.8000	67.401
396.7000	67.413
396.6000	67.416
396.5000	67.4218
396.4000	67.4214
396.3000	67.4185
396.2000	67.4146
396.1000	67.4123
396.0000	67.4093
395.9000	67.3976
395.8000	67.3868
395.7000	67.37
395.6000	67.3614
395.5000	67.3459
395.4000	67.3381
395.3000	67.3304
395.2000	67.3215
395.1000	67.3174
395.0000	67.3193
394.9000	67.3127
394.8000	67.3144
394.7000	67.3147
394.6000	67.318
394.5000	67.3214
394.4000	67.3234
394.3000	67.3305
394.2000	67.34
394.1000	67.3538
394.0000	67.3611
393.9000	67.3756
393.8000	67.3827
393.7000	67.3969
393.6000	67.4115
393.5000	67.4254
393.4000	67.4376
393.3000	67.4521
393.2000	67.4653
393.1000	67.4772
393.0000	67.4832
392.9000	67.4902
392.8000	67.4967
392.7000	67.5028
392.6000	67.5068
392.5000	67.5107
392.4000	67.5107
392.3000	67.517
392.2000	67.5274
392.1000	67.5304
392.0000	67.5374
391.9000	67.5352
391.8000	67.5349
391.7000	67.5324
391.6000	67.5333
391.5000	67.5383
391.4000	67.5456
391.3000	67.5495
391.2000	67.5567
391.1000	67.5659
391.0000	67.573
390.9000	67.5834
390.8000	67.5981
390.7000	67.6047
390.6000	67.6069
390.5000	67.6087
390.4000	67.6161
390.3000	67.6307
390.2000	67.6414
390.1000	67.6578
390.0000	67.668
389.9000	67.6789
389.8000	67.6871
389.7000	67.6947
389.6000	67.7018
389.5000	67.7072
389.4000	67.7167
389.3000	67.72
389.2000	67.7267
389.1000	67.7326
389.0000	67.7355
388.9000	67.742
388.8000	67.742
388.7000	67.7384
388.6000	67.7348
388.5000	67.729
388.4000	67.7248
388.3000	67.7131
388.2000	67.7078
388.1000	67.7045
388.0000	67.6962
387.9000	67.692
387.8000	67.6818
387.7000	67.676
387.6000	67.6704
387.5000	67.6607
387.4000	67.6642
387.3000	67.6552
387.2000	67.6493
387.1000	67.6484
387.0000	67.6453
386.9000	67.6445
386.8000	67.644
386.7000	67.6464
386.6000	67.6453
386.5000	67.6483
386.4000	67.651
386.3000	67.6483
386.2000	67.649
386.1000	67.652
386.0000	67.6463
385.9000	67.6463
385.8000	67.635
385.7000	67.6373
385.6000	67.6314
385.5000	67.6219
385.4000	67.6153
385.3000	67.6077
385.2000	67.5981
385.1000	67.5856
385.0000	67.5712
384.9000	67.5527
384.8000	67.5323
384.7000	67.5193
384.6000	67.5096
384.5000	67.4926
384.4000	67.4762
384.3000	67.4597
384.2000	67.4428
384.1000	67.429
384.0000	67.4122
383.9000	67.3982
383.8000	67.3818
383.7000	67.3645
383.6000	67.3504
383.5000	67.3354
383.4000	67.3214
383.3000	67.3097
383.2000	67.3009
383.1000	67.285
383.0000	67.2618
382.9000	67.2408
382.8000	67.2234
382.7000	67.204
382.6000	67.1874
382.5000	67.1611
382.4000	67.1416
382.3000	67.1145
382.2000	67.0931
382.1000	67.0661
382.0000	67.0381
381.9000	67.0062
381.8000	66.9793
381.7000	66.9476
381.6000	66.9138
381.5000	66.882
381.4000	66.8526
381.3000	66.8211
381.2000	66.7908
381.1000	66.7653
381.0000	66.7352
380.9000	66.7099
380.8000	66.6807
380.7000	66.6528
380.6000	66.6212
380.5000	66.5884
380.4000	66.5514
380.3000	66.522
380.2000	66.4833
380.1000	66.4517
380.0000	66.4148
379.9000	66.3759
379.8000	66.3305
379.7000	66.2925
379.6000	66.2506
379.5000	66.2044
379.4000	66.1628
379.3000	66.115
379.2000	66.0669
379.1000	66.0188
379.0000	65.9696
378.9000	65.9187
378.8000	65.8691
378.7000	65.8233
378.6000	65.7729
378.5000	65.7201
378.4000	65.6704
378.3000	65.6215
378.2000	65.5702
378.1000	65.5164
378.0000	65.4575
377.9000	65.391
377.8000	65.3245
377.7000	65.2605
377.6000	65.1936
377.5000	65.1304
377.4000	65.0569
377.3000	64.9889
377.2000	64.9176
377.1000	64.8369
377.0000	64.7627
376.9000	64.6815
376.8000	64.6007
376.7000	64.5174
376.6000	64.4385
376.5000	64.3493
376.4000	64.2668
376.3000	64.1829
376.2000	64.0928
376.1000	63.9949
376.0000	63.8968
375.9000	63.7935
375.8000	63.691
375.7000	63.5808
375.6000	63.4726
375.5000	63.3545
375.4000	63.2345
375.3000	63.1092
375.2000	62.9796
375.1000	62.8385
375.0000	62.699
374.9000	62.5529
374.8000	62.3984
374.7000	62.235
374.6000	62.0733
374.5000	61.9054
374.4000	61.7294
374.3000	61.5456
374.2000	61.3602
374.1000	61.1664
374.0000	60.9608
373.9000	60.7506
373.8000	60.5339
373.7000	60.3142
373.6000	60.0792
373.5000	59.8386
373.4000	59.5821
373.3000	59.3228
373.2000	59.0412
373.1000	58.7585
373.0000	58.4604
372.9000	58.1511
372.8000	57.8296
372.7000	57.5005
372.6000	57.157
372.5000	56.8084
372.4000	56.4439
372.3000	56.0727
372.2000	55.6823
372.1000	55.2722
372.0000	54.8564
371.9000	54.4254
371.8000	53.9821
371.7000	53.5291
371.6000	53.0674
371.5000	52.5905
371.4000	52.0867
371.3000	51.5804
371.2000	51.0613
371.1000	50.5251
371.0000	49.9752
370.9000	49.4058
370.8000	48.8193
370.7000	48.2154
370.6000	47.6026
370.5000	46.9807
370.4000	46.3388
370.3000	45.6866
370.2000	45.0242
370.1000	44.3448
370.0000	40.9765
369.9000	40.2521
369.8000	39.5178
369.7000	38.7798
369.6000	38.0292
369.5000	37.2672
369.4000	36.4985
369.3000	35.7183
369.2000	34.9402
369.1000	34.1489
369.0000	33.3628
368.9000	32.5627
368.8000	31.7598
368.7000	30.9555
368.6000	30.1619
368.5000	29.3627
368.4000	28.5562
368.3000	27.7563
368.2000	26.9662
368.1000	26.1716
368.0000	25.3827
367.9000	24.6027
367.8000	23.8209
367.7000	23.0521
367.6000	22.2855
367.5000	21.5278
367.4000	20.7758
367.3000	20.0385
367.2000	19.3127
367.1000	18.5959
367.0000	17.8868
366.9000	17.1923
366.8000	16.5115
366.7000	15.845
366.6000	15.185
366.5000	14.5402
366.4000	13.9079
366.3000	13.2892
366.2000	12.6914
366.1000	12.1067
366.0000	11.5366
365.9000	10.982
365.8000	10.4413
365.7000	9.91722
365.6000	9.40917
365.5000	8.91743
365.4000	8.43871
365.3000	7.97522
365.2000	7.53248
365.1000	7.10023
365.0000	6.68447
364.9000	6.28546
364.8000	5.90212
364.7000	5.53424
364.6000	5.18081
364.5000	4.84173
364.4000	4.51655
364.3000	4.20553
364.2000	3.91127
364.1000	3.63084
364.0000	3.36417
363.9000	3.11116
363.8000	2.87281
363.7000	2.64702
363.6000	2.43354
363.5000	2.23273
363.4000	2.04402
363.3000	1.86773
363.2000	1.70366
363.1000	1.5501
363.0000	1.40677
362.9000	1.27434
362.8000	1.15136
362.7000	1.03751
362.6000	0.932023
362.5000	0.835101
362.4000	0.74646
362.3000	0.665539
362.2000	0.591284
362.1000	0.52377
362.0000	0.462922
361.9000	0.40868
361.8000	0.359931
361.7000	0.315658
361.6000	0.275634
361.5000	0.24015
361.4000	0.208675
361.3000	0.180896
361.2000	0.156077
361.1000	0.134509
361.0000	0.115582
360.9000	0.0992438
360.8000	0.0851896
360.7000	0.0728504
360.6000	0.0622411
360.5000	0.0531346
360.4000	0.0453958
360.3000	0.0389181
360.2000	0.033456
360.1000	0.0286171
360.0000	0.0246009
359.9000	0.0214345
359.8000	0.0187622
359.7000	0.0165128
359.6000	0.0147107
359.5000	0.0131592
359.4000	0.011885
359.3000	0.0108374
359.2000	0.00993741
359.1000	0.0093114
359.0000	0.00861153
358.9000	0.00811064
358.8000	0.00771018
358.7000	0.00728358
358.6000	0.00693305
358.5000	0.00668296
358.4000	0.00645798
358.3000	0.0062324
358.2000	0.0061303
358.1000	0.00605417
358.0000	0.00585518
357.9000	0.00563121
357.8000	0.0054568
357.7000	0.0053301
357.6000	0.00517841
357.5000	0.00492867
357.4000	0.0048512
357.3000	0.00480143
357.2000	0.00469978
357.1000	0.00462468
357.0000	0.00457502
356.9000	0.00454786
356.8000	0.0044975
356.7000	0.00437279
356.6000	0.0041982
356.5000	0.00402284
356.4000	0.00397211
356.3000	0.00389764
356.2000	0.00387079
356.1000	0.00379486
356.0000	0.00379502
355.9000	0.00379538
355.8000	0.00376942
355.7000	0.00366796
355.6000	0.00359442
355.5000	0.00354394
355.4000	0.00341775
355.3000	0.00334087
355.2000	0.00329223
355.1000	0.00329174
355.0000	0.00326761
354.9000	0.00319402
354.8000	0.00321778
354.7000	0.00321732
354.6000	0.00312016
354.5000	0.00309626
354.4000	0.00302313
354.3000	0.00299788
354.2000	0.00294883
354.1000	0.002974
354.0000	0.00297352
353.9000	0.00294934
353.8000	0.00290045
353.7000	0.00287699
353.6000	0.00277929
353.5000	0.00273072
353.4000	0.00270647
353.3000	0.00273136
353.2000	0.00258463
353.1000	0.00251128
353.0000	0.002511
352.9000	0.00241267
352.8000	0.0023633
352.7000	0.00231413
352.6000	0.00231412
352.5000	0.0021917
352.4000	0.00211863
352.3000	0.00206949
352.2000	0.00209376
352.1000	0.0020201
352.0000	0.00206917
351.9000	0.00209353
351.8000	0.00204474
351.7000	0.00197099
351.6000	0.00202051
351.5000	0.00204436
351.4000	0.00199541
351.3000	0.00199568
351.2000	0.00204466
351.1000	0.00206927
351.0000	0.00204403
350.9000	0.00209308
350.8000	0.00209261
350.7000	0.00211736
350.6000	0.00206853
350.5000	0.00214168
350.4000	0.00209218
350.3000	0.00196956
350.2000	0.00194521
350.1000	0.00199389
350.0000	0.00201852
349.9000	0.00194565
349.8000	0.00199528
349.7000	0.00192175
349.6000	0.00187272
349.5000	0.00184888
349.4000	0.00187483
349.3000	0.00189911
349.2000	0.00189932
349.1000	0.00182523
349.0000	0.00187374
348.9000	0.00180046
348.8000	0.00182617
348.7000	0.00180233
348.6000	0.00182627
348.5000	0.00180214
348.4000	0.00180225
348.3000	0.00187616
348.2000	0.00177757
348.1000	0.00190012
348.0000	0.00187585
347.9000	0.00189976
347.8000	0.00182523
347.7000	0.00175154
347.6000	0.00177613
347.5000	0.00175244
347.4000	0.00175262
347.3000	0.00175249
347.2000	0.00172592
347.1000	0.00177389
347.0000	0.00172531
346.9000	0.00167606
346.8000	0.00157793
346.7000	0.00150403
346.6000	0.0015282
346.5000	0.00147885
346.4000	0.00145445
346.3000	0.0013564
346.2000	0.00140565
346.1000	0.00140567
346.0000	0.00138062
345.9000	0.0013804
345.8000	0.0013558
345.7000	0.00135617
345.6000	0.00135717
345.5000	0.00135754
345.4000	0.00138163
345.3000	0.00143095
345.2000	0.00145499
345.1000	0.00145415
345.0000	0.00145441
344.9000	0.00143037
344.8000	0.0014549
344.7000	0.0014548
344.6000	0.00145528
344.5000	0.00147961
344.4000	0.00150471
344.3000	0.00150457
344.2000	0.0015297
344.1000	0.00155417
344.0000	0.00152964
343.9000	0.0015782
343.8000	0.00162755
343.7000	0.00162703
343.6000	0.00162694
343.5000	0.00162728
343.4000	0.00157808
343.3000	0.0016018
343.2000	0.0016259
343.1000	0.00165019
343.0000	0.00164995
342.9000	0.00167485
342.8000	0.0016743
342.7000	0.00172295
342.6000	0.00162438
342.5000	0.0015504
342.4000	0.00152556
342.3000	0.00145244
342.2000	0.00135374
342.1000	0.00135352
342.0000	0.00137798
341.9000	0.00142723
341.8000	0.00155037
341.7000	0.00159989
341.6000	0.0015757
341.5000	0.00152724
341.4000	0.00155152
341.3000	0.00147843
341.2000	0.00147861
341.1000	0.00142951
341.0000	0.00155228
340.9000	0.00157735
340.8000	0.00162659
340.7000	0.00157728
340.6000	0.00162661
340.5000	0.00162657
340.4000	0.00165187
340.3000	0.00160268
340.2000	0.00152828
340.1000	0.00152804
340.0000	0.00940397
339.9000	0.00947781
339.8000	0.00947749
339.7000	0.00930312
339.6000	0.00930175
339.5000	0.00920111
339.4000	0.00915168
339.3000	0.00912561
339.2000	0.00900141
339.1000	0.00899844
339.0000	0.00899661
338.9000	0.00892462
338.8000	0.00882515
338.7000	0.0087472
338.6000	0.00874389
338.5000	0.00874294
338.4000	0.00871919
338.3000	0.00857157
338.2000	0.00854582
338.1000	0.00857082
338.0000	0.00844692
337.9000	0.00847156
337.8000	0.00847108
337.7000	0.00842266
337.6000	0.00846934
337.5000	0.00841956
337.4000	0.00839285
337.3000	0.0083897
337.2000	0.0084141
337.1000	0.00844096
337.0000	0.00836608
336.9000	0.00833975
336.8000	0.00833933
336.7000	0.00831438
336.6000	0.00819033
336.5000	0.00819054
336.4000	0.00833888
336.3000	0.00831389
336.2000	0.00828795
336.1000	0.00826211
336.0000	0.00823823
335.9000	0.00828468
335.8000	0.00830798
335.7000	0.00823523
335.6000	0.00823338
335.5000	0.00825554
335.4000	0.00820701
335.3000	0.00815821
335.2000	0.00813416
335.1000	0.00808378
335.0000	0.00813084
334.9000	0.00810532
334.8000	0.00797981
334.7000	0.00793019
334.6000	0.00795295
334.5000	0.00792674
334.4000	0.00792603
334.3000	0.00787746
334.2000	0.00780478
334.1000	0.00782826
334.0000	0.00775401
333.9000	0.00765669
333.8000	0.00768023
333.7000	0.00770381
333.6000	0.00765336
333.5000	0.00755322
333.4000	0.00747903
333.3000	0.00735294
333.2000	0.00735393
333.1000	0.0073062
333.0000	0.00723251
332.9000	0.00728038
332.8000	0.0073278
332.7000	0.00735353
332.6000	0.00727764
332.5000	0.00725256
332.4000	0.00729993
332.3000	0.00737238
332.2000	0.00734619
332.1000	0.00729668
332.0000	0.00724513
331.9000	0.00729274
331.8000	0.00733994
331.7000	0.00739084
331.6000	0.00738958
331.5000	0.00736449
331.4000	0.00731451
331.3000	0.00724088
331.2000	0.00716747
331.1000	0.00709142
331.0000	0.00706735
330.9000	0.00704078
330.8000	0.00701645
330.7000	0.00689268
330.6000	0.00691697
330.5000	0.00689173
330.4000	0.00684429
330.3000	0.00689299
330.2000	0.00686836
330.1000	0.00686592
330.0000	0.00688832
329.9000	0.00693439
329.8000	0.00693489
329.7000	0.00693561
329.6000	0.0068618
329.5000	0.00683658
329.4000	0.00688374
329.3000	0.00695646
329.2000	0.00685855
329.1000	0.00693132
329.0000	0.0068582
328.9000	0.00678292
328.8000	0.0068287
328.7000	0.0068046
328.6000	0.0067812
328.5000	0.00678182
328.4000	0.006732
328.3000	0.00665804
328.2000	0.0066564
328.1000	0.00658203
328.0000	0.00658096
327.9000	0.00655544
327.8000	0.00645686
327.7000	0.00638465
327.6000	0.00645543
327.5000	0.00640683
327.4000	0.00638044
327.3000	0.00647813
327.2000	0.00642922
327.1000	0.00635591
327.0000	0.00630661
326.9000	0.00625763
326.8000	0.00623261
326.7000	0.00625774
326.6000	0.00620932
326.5000	0.00623336
326.4000	0.00620817
326.3000	0.00623185
326.2000	0.00625705
326.1000	0.00625641
326.0000	0.00623245
325.9000	0.00620568
325.8000	0.00620346
325.7000	0.00612911
325.6000	0.00620281
325.5000	0.00625261
325.4000	0.00634798
325.3000	0.00634634
325.2000	0.0063706
325.1000	0.00636815
325.0000	0.00643912
324.9000	0.00646302
324.8000	0.00643865
324.7000	0.00636555
324.6000	0.00641305
324.5000	0.00636364
324.4000	0.006314
324.3000	0.00631409
324.2000	0.00629028
324.1000	0.00626588
324.0000	0.00614433
323.9000	0.0060932
323.8000	0.00599597
323.7000	0.00599433
323.6000	0.00594588
323.5000	0.00584857
323.4000	0.00572782
323.3000	0.00560407
323.2000	0.00565092
323.1000	0.00567449
323.0000	0.00555296
322.9000	0.00550325
322.8000	0.00550329
322.7000	0.00550333
322.6000	0.005552
322.5000	0.00557531
322.4000	0.00557398
322.3000	0.00554922
322.2000	0.00550157
322.1000	0.0055019
322.0000	0.00545187
321.9000	0.00552497
321.8000	0.00559757
321.7000	0.00564862
321.6000	0.00557537
321.5000	0.00554944
321.4000	0.00559707
321.3000	0.0055957
321.2000	0.00547277
321.1000	0.00544842
321.0000	0.00540001
320.9000	0.005352
320.8000	0.00535089
320.7000	0.00532666
320.6000	0.0052757
320.5000	0.00522725
320.4000	0.00520271
320.3000	0.00515289
320.2000	0.00512637
320.1000	0.00502616
320.0000	0.00502854
319.9000	0.00500584
319.8000	0.00502923
319.7000	0.00500588
319.6000	0.0050804
319.5000	0.0050553
319.4000	0.00502993
319.3000	0.00505286
319.2000	0.00502843
319.1000	0.00505359
319.0000	0.00502912
318.9000	0.00497911
318.8000	0.00495403
318.7000	0.00492888
318.6000	0.00495589
318.5000	0.0050046
318.4000	0.0050519
318.3000	0.00500231
318.2000	0.00492922
318.1000	0.00495417
318.0000	0.00492798
317.9000	0.00492752
317.8000	0.00492878
317.7000	0.00487955
317.6000	0.00482949
317.5000	0.00482844
317.4000	0.00490077
317.3000	0.00487849
317.2000	0.00487713
317.1000	0.00490235
317.0000	0.00480442
316.9000	0.00478064
316.8000	0.00463409
316.7000	0.00465901
316.6000	0.00473232
316.5000	0.00473095
316.4000	0.00475584
316.3000	0.00468283
316.2000	0.00463197
316.1000	0.00465839
316.0000	0.00463613
315.9000	0.00461192
315.8000	0.00461307
315.7000	0.00461196
315.6000	0.00463888
315.5000	0.00456677
315.4000	0.00456472
315.3000	0.00458819
315.2000	0.00463475
315.1000	0.00458515
315.0000	0.0044633
314.9000	0.0044141
314.8000	0.00441273
314.7000	0.00443678
314.6000	0.00438935
314.5000	0.00429081
314.4000	0.00436304
314.3000	0.00436176
314.2000	0.00436116
314.1000	0.00431212
314.0000	0.00428645
313.9000	0.00428503
313.8000	0.00423455
313.7000	0.00425814
313.6000	0.00425962
313.5000	0.00423507
313.4000	0.00423348
313.3000	0.00428262
313.2000	0.00423513
313.1000	0.00425809
313.0000	0.00430483
312.9000	0.00437735
312.8000	0.00435224
312.7000	0.00432879
312.6000	0.00432762
312.5000	0.0043746
312.4000	0.00437375
312.3000	0.0043721
312.2000	0.00439623
312.1000	0.00432273
312.0000	0.00432042
311.9000	0.00436899
311.8000	0.00434778
311.7000	0.00427252
311.6000	0.00422353
311.5000	0.00410082
311.4000	0.00417408
311.3000	0.00417319
311.2000	0.00422293
311.1000	0.00417411
311.0000	0.004174
310.9000	0.00417512
310.8000	0.00417559
310.7000	0.00412653
310.6000	0.00405431
310.5000	0.00405534
310.4000	0.00400781
310.3000	0.00398169
310.2000	0.0039536
310.1000	0.00400346
310.0000	0.00410065
309.9000	0.0041727
309.8000	0.00400258
309.7000	0.00392797
309.6000	0.00385375
309.5000	0.00387549
309.4000	0.00385228
309.3000	0.00382711
309.2000	0.00377945
309.1000	0.00382793
309.0000	0.003924
308.9000	0.00392246
308.8000	0.00399547
308.7000	0.00401975
308.6000	0.00402076
308.5000	0.00399429
308.4000	0.00396907
308.3000	0.00389702
308.2000	0.00394479
308.1000	0.00394441
308.0000	0.00389475
307.9000	0.00386982
307.8000	0.00384349
307.7000	0.00381695
307.6000	0.0038154
307.5000	0.00379035
307.4000	0.00374078
307.3000	0.00369283
307.2000	0.00366767
307.1000	0.00364371
307.0000	0.003692
306.9000	0.00366781
306.8000	0.00356994
306.7000	0.00354578
306.6000	0.00352175
306.5000	0.00352155
306.4000	0.00356965
306.3000	0.00361804
306.2000	0.00354481
306.1000	0.00349702
306.0000	0.00342484
305.9000	0.00337625
305.8000	0.0034009
305.7000	0.00344788
305.6000	0.0034472
305.5000	0.00344721
305.4000	0.00342327
305.3000	0.00337562
305.2000	0.00342256
305.1000	0.00351795
305.0000	0.00349374
304.9000	0.00349302
304.8000	0.00349339
304.7000	0.00344594
304.6000	0.00342124
304.5000	0.0034683
304.4000	0.00356304
304.3000	0.00356309
304.2000	0.00346708
304.1000	0.00344269
304.0000	0.00337111
303.9000	0.00329885
303.8000	0.00327449
303.7000	0.0032027
303.6000	0.00317793
303.5000	0.00310589
303.4000	0.00317728
303.3000	0.00315421
303.2000	0.00310555
303.1000	0.00310491
303.0000	0.00310481
302.9000	0.00312886
302.8000	0.00308096
302.7000	0.00315194
302.6000	0.00317489
302.5000	0.00317496
302.4000	0.003151
302.3000	0.00319913
302.2000	0.00319804
302.1000	0.00331654
302.0000	0.00336442
301.9000	0.00338818
301.8000	0.00329248
301.7000	0.0033388
301.6000	0.00329095
301.5000	0.00326642
301.4000	0.00331346
301.3000	0.00331384
301.2000	0.00329004
301.1000	0.00326623
301.0000	0.00324205
300.9000	0.00324186
300.8000	0.00319392
300.7000	0.00321661
300.6000	0.00321679
300.5000	0.0031689
300.4000	0.00307341
300.3000	0.00307306
300.2000	0.00309692
300.1000	0.00300239
300.0000	0.00302584
299.9000	0.00302597
299.8000	0.00295456
299.7000	0.00281094
299.6000	0.00281063
299.5000	0.00271572
299.4000	0.00271608
299.3000	0.00266852
299.2000	0.00266847
299.1000	0.00259699
299.0000	0.00252557
298.9000	0.00255012
298.8000	0.0025976
298.7000	0.0025971
298.6000	0.00257272
298.5000	0.00259537
298.4000	0.00259509
298.3000	0.00257059
298.2000	0.00259451
298.1000	0.00266461
298.0000	0.0026409
297.9000	0.00268833
297.8000	0.00268775
297.7000	0.00266302
297.6000	0.00266272
297.5000	0.00266343
297.4000	0.00268691
297.3000	0.00259045
297.2000	0.00251934
297.1000	0.00247142
297.0000	0.0024713
296.9000	0.00242426
296.8000	0.00240043
296.7000	0.00232896
296.6000	0.00232901
296.5000	0.00232988
296.4000	0.00232933
296.3000	0.00225722
296.2000	0.00225679
296.1000	0.002281
296.0000	0.00232854
295.9000	0.00225611
295.8000	0.00225552
295.7000	0.00225569
295.6000	0.00223213
295.5000	0.00220883
295.4000	0.0022081
295.3000	0.0022079
295.2000	0.00225526
295.1000	0.00230353
295.0000	0.00230256
294.9000	0.00227895
294.8000	0.00220784
294.7000	0.00223252
294.6000	0.00223253
294.5000	0.00220893
294.4000	0.00218488
294.3000	0.00225629
294.2000	0.00220971
294.1000	0.00218629
294.0000	0.00216205
293.9000	0.00213795
293.8000	0.00213761
293.7000	0.00218505
293.6000	0.0021136
293.5000	0.00208924
293.4000	0.00206593
293.3000	0.00206605
293.2000	0.00211366
293.1000	0.00208912
293.0000	0.00201803
292.9000	0.00204103
292.8000	0.0020406
292.7000	0.00196928
292.6000	0.00196895
292.5000	0.00194487
292.4000	0.00194428
292.3000	0.00196768
292.2000	0.00192028
292.1000	0.00189615
292.0000	0.00189631
291.9000	0.0018491
291.8000	0.00182465
291.7000	0.00177679
291.6000	0.00170561
291.5000	0.00168162
291.4000	0.00168118
291.3000	0.00165751
291.2000	0.00161016
291.1000	0.00156345
291.0000	0.00153979
290.9000	0.00161097
290.8000	0.00163537
290.7000	0.00154059
290.6000	0.00156522
290.5000	0.00154138
290.4000	0.00149337
290.3000	0.0014691
290.2000	0.00149383
290.1000	0.001517
290.0000	0.00161138
289.9000	0.00163547
289.8000	0.00161174
289.7000	0.00151665
289.6000	0.00154044
289.5000	0.00161101
289.4000	0.00161051
289.3000	0.00156292
289.2000	0.00153847
289.1000	0.00158573
289.0000	0.00156153
288.9000	0.00156155
288.8000	0.00156206
288.7000	0.00158637
288.6000	0.00151468
288.5000	0.00149106
288.4000	0.0014436
288.3000	0.00141986
288.2000	0.00144388
288.1000	0.00142019
288.0000	0.00139657
287.9000	0.00132523
287.8000	0.00134868
287.7000	0.00137218
287.6000	0.00130152
287.5000	0.00127804
287.4000	0.00123024
287.3000	0.00115887
287.2000	0.00118258
287.1000	0.00113476
287.0000	0.00115758
286.9000	0.00113397
286.8000	0.00111105
286.7000	0.00111096
286.6000	0.0010864
286.5000	0.00113445
286.4000	0.00113382
286.3000	0.00120463
286.2000	0.00118094
286.1000	0.00115753
286.0000	0.00120488
285.9000	0.00122869
285.8000	0.00129957
285.7000	0.00132367
285.6000	0.00129904
285.5000	0.00127489
285.4000	0.00120469
285.3000	0.00120432
285.2000	0.00117983
285.1000	0.00115574
285.0000	0.00115655
284.9000	0.00117941
284.8000	0.00117988
284.7000	0.00110904
284.6000	0.00108591
284.5000	0.00108618
284.4000	0.00103816
284.3000	0.00103772
284.2000	0.00101448
284.1000	0.0009906
284.0000	0.000991362
283.9000	0.00106264
283.8000	0.00108622
283.7000	0.00110979
283.6000	0.00108576
283.5000	0.00110928
283.4000	0.00108564
283.3000	0.00113361
283.2000	0.0011574
283.1000	0.00120483
283.0000	0.00125217
282.9000	0.00118033
282.8000	0.00127514
282.7000	0.00127528
282.6000	0.00125148
282.5000	0.00125125
282.4000	0.00125065
282.3000	0.00120354
282.2000	0.00122717
282.1000	0.00115634
282.0000	0.00115655
281.9000	0.00110954
281.8000	0.00115648
281.7000	0.00110854
281.6000	0.00101416
281.5000	0.000966554
281.4000	0.000966078
281.3000	0.000989823
281.2000	0.000966909
281.1000	0.000943078
281.0000	0.00084806
280.9000	0.000871614
280.8000	0.000872193
280.7000	0.000848588
280.6000	0.000848428
280.5000	0.000895533
280.4000	0.000895329
280.3000	0.000895018
280.2000	0.000895419
280.1000	0.000848305
280.0000	0.000871596
279.9000	0.000894985
279.8000	0.000895147
279.7000	0.000919313
279.6000	0.000871425
279.5000	0.000871526
279.4000	0.0009661
279.3000	0.000989802
279.2000	0.000989394
279.1000	0.00103607
279.0000	0.00098854
278.9000	0.000989014
278.8000	0.000989266
278.7000	0.000988916
278.6000	0.00098813
278.5000	0.00101144
278.4000	0.00103543
278.3000	0.00101175
278.2000	0.000964032
278.1000	0.000940025
278.0000	0.000939909
277.9000	0.000915858
277.8000	0.000915919
277.7000	0.000868822
277.6000	0.000892513
277.5000	0.000868952
277.4000	0.000915664
277.3000	0.000915699
277.2000	0.00089222
277.1000	0.000940568
277.0000	0.000893637
276.9000	0.00087026
276.8000	0.000845824
276.7000	0.000822532
276.6000	0.000870096
276.5000	0.000894033
276.4000	0.000870005
276.3000	0.000917377
276.2000	0.000870286
276.1000	0.00087
276.0000	0.000799008
275.9000	0.000822802
275.8000	0.000823464
275.7000	0.00077545
275.6000	0.000822119
275.5000	0.000774537
275.4000	0.000750636
275.3000	0.00072685
275.2000	0.00077437
275.1000	0.00079784
275.0000	0.000821347
274.9000	0.000844512
274.8000	0.000868597
274.7000	0.000821327
274.6000	0.000891596
274.5000	0.000891966
274.4000	0.000916217
274.3000	0.000892789
274.2000	0.000845189
274.1000	0.000868578
274.0000	0.000892543
273.9000	0.000962764
273.8000	0.00105738
273.7000	0.0010573
273.6000	0.00101018
273.5000	0.00103355
273.4000	0.00103325
273.3000	0.00103288
273.2000	0.0010094
273.1000	0.00105721
273.0000	0.0010335
272.9000	0.00108001
272.8000	0.00110324
272.7000	0.00110316
272.6000	0.00110325
272.5000	0.00107969
272.4000	0.00105657
272.3000	0.000962485
272.2000	0.000844154
272.1000	0.0008676
272.0000	0.000914051
271.9000	0.000914111
271.8000	0.000796281
271.7000	0.000725785
271.6000	0.00077239
271.5000	0.000724545
271.4000	0.000700579
271.3000	0.000653861
271.2000	0.00060605
271.1000	0.000629008
271.0000	0.000723373
270.9000	0.000723845
270.8000	0.000699891
270.7000	0.000746925
270.6000	0.000864561
270.5000	0.000864291
270.4000	0.000841483
270.3000	0.000818569
270.2000	0.000912528
270.1000	0.000935401
270.0000	0.000888881
269.9000	0.00088901
269.8000	0.000890071
269.7000	0.000889831
269.6000	0.000937526
269.5000	0.000938262
269.4000	0.000867879
269.3000	0.000914914
269.2000	0.000914728
269.1000	0.000937521
269.0000	0.000890904
268.9000	0.00091534
268.8000	0.000891643
268.7000	0.000890715
268.6000	0.000820526
268.5000	0.000845009
268.4000	0.000844611
268.3000	0.000843995
268.2000	0.000890878
268.1000	0.000867712
268.0000	0.000796792
267.9000	0.000772879
267.8000	0.000796428
267.7000	0.000773277
267.6000	0.000820429
267.5000	0.000726551
267.4000	0.000678722
267.3000	0.00065426
267.2000	0.000630483
267.1000	0.000630879
267.0000	0.000654553
266.9000	0.000677019
266.8000	0.000724182
266.7000	0.000748315
266.6000	0.000653917
266.5000	0.000677847
266.4000	0.000700994
266.3000	0.0007003
266.2000	0.000676234
266.1000	0.000675914
266.0000	0.000652395
265.9000	0.000699869
265.8000	0.000724423
265.7000	0.000771968
265.6000	0.000819093
265.5000	0.000819199
265.4000	0.000818842
265.3000	0.000748529
265.2000	0.000724828
265.1000	0.000724555
265.0000	0.000771949
264.9000	0.000771538
264.8000	0.000724489
264.7000	0.000701376
264.6000	0.000678152
264.5000	0.00067792
264.4000	0.000630567
264.3000	0.000607154
264.2000	0.000559159
264.1000	0.000558928
264.0000	0.000487899
263.9000	0.000487725
263.8000	0.000487363
263.7000	0.000534653
263.6000	0.000558164
263.5000	0.00053509
263.4000	0.000511997
263.3000	0.000488129
263.2000	0.000535356
263.1000	0.000559005
263.0000	0.000582445
262.9000	0.000558941
262.8000	0.000582789
262.7000	0.000582889
262.6000	0.000606792
262.5000	0.000560036
262.4000	0.000559448
262.3000	0.000606551
262.2000	0.000607599
262.1000	0.000607874
262.0000	0.000560751
261.9000	0.000560154
261.8000	0.000606976
261.7000	0.000558753
261.6000	0.000581913
261.5000	0.00058211
261.4000	0.00055857
261.3000	0.000582122
261.2000	0.000557987
261.1000	0.000581412
261.0000	0.000557642
260.9000	0.000509577
260.8000	0.000534146
260.7000	0.000511136
260.6000	0.000557604
260.5000	0.000510024
260.4000	0.000557091
260.3000	0.000581293
260.2000	0.000557454
260.1000	0.000652722
260.0000	0.000653459
259.9000	0.000629919
259.8000	0.00062967
259.7000	0.000653082
259.6000	0.000723877
259.5000	0.000700341
259.4000	0.000724284
259.3000	0.000748334
259.2000	0.000772022
259.1000	0.000771263
259.0000	0.00070049
258.9000	0.000724033
258.8000	0.000700624
258.7000	0.000724089
258.6000	0.000700594
258.5000	0.000700607
258.4000	0.000652978
258.3000	0.000724086
258.2000	0.000723929
258.1000	0.000700677
258.0000	0.000607018
257.9000	0.000630593
257.8000	0.000629971
257.7000	0.000653481
257.6000	0.00067677
257.5000	0.000629574
257.4000	0.000677008
257.3000	0.000677653
257.2000	0.000654301
257.1000	0.000559304
257.0000	0.00058257
256.9000	0.000582291
256.8000	0.000654046
256.7000	0.000583055
256.6000	0.000630506
256.5000	0.000630199
256.4000	0.000653326
256.3000	0.00070054
256.2000	0.000701063
256.1000	0.000654246
256.0000	0.000631126
255.9000	0.000655607
255.8000	0.000655279
255.7000	0.000630805
255.6000	0.000654133
255.5000	0.000701433
255.4000	0.000701894
255.3000	0.000702262
255.2000	0.000678499
255.1000	0.000725794
255.0000	0.000678567
254.9000	0.00063123
254.8000	0.000631041
254.7000	0.000583836
254.6000	0.000631732
254.5000	0.000679146
254.4000	0.000678625
254.3000	0.000630777
254.2000	0.000630855
254.1000	0.000655592
254.0000	0.000632799
253.9000	0.000633356
253.8000	0.000680582
253.7000	0.000657416
253.6000	0.000657318
253.5000	0.00063347
253.4000	0.000634061
253.3000	0.000705534
253.2000	0.000729909
253.1000	0.000729967
253.0000	0.000753298
252.9000	0.000729251
252.8000	0.000729396
252.7000	0.000753331
252.6000	0.000730258
252.5000	0.000753279
252.4000	0.000776507
252.3000	0.000776461
252.2000	0.000752927
252.1000	0.00075231
252.0000	0.000752227
251.9000	0.000729172
251.8000	0.000776369
251.7000	0.000752387
251.6000	0.00079919
251.5000	0.000823006
251.4000	0.000822972
251.3000	0.00087092
251.2000	0.000823445
251.1000	0.000823674
251.0000	0.000823051
250.9000	0.000847194
250.8000	0.000847101
250.7000	0.000870204
250.6000	0.000870257
250.5000	0.000846713
250.4000	0.000846819
250.3000	0.000823059
250.2000	0.000798763
250.1000	0.000798355
250.0000	0.000751553
