TITLE	12.1_NP_0
DATA TYPE	ULTRAVIOLET SPECTRUM
ORIGIN	JASCO
OWNER	
DATE	21/05/03
TIME	16:19:54
SPECTROMETER/DATA SYSTEM	
RESOLUTION	
DELTAX	-0.1
XUNITS	NANOMETERS
YUNITS	TRANSMITTANCE
FIRSTX	  850.0000
LASTX	  250.0000
NPOINTS	    6001
FIRSTY	    77.93438
MAXY	    81.61069
MINY	     0.00037
XYDATA
850.0000	77.9344
849.9000	77.8161
849.8000	77.6779
849.7000	77.537
849.6000	77.4033
849.5000	77.2716
849.4000	77.1207
849.3000	76.9772
849.2000	76.8373
849.1000	76.6874
849.0000	76.5498
848.9000	76.4022
848.8000	76.2471
848.7000	76.0972
848.6000	75.9491
848.5000	75.7963
848.4000	75.6439
848.3000	75.4879
848.2000	75.3408
848.1000	75.1896
848.0000	75.0465
847.9000	74.8977
847.8000	74.7591
847.7000	74.6155
847.6000	74.4586
847.5000	74.3118
847.4000	74.1621
847.3000	74.023
847.2000	73.8813
847.1000	73.7468
847.0000	73.6091
846.9000	73.4692
846.8000	73.3325
846.7000	73.1986
846.6000	73.0605
846.5000	72.9303
846.4000	72.7898
846.3000	72.6583
846.2000	72.5304
846.1000	72.3933
846.0000	72.2702
845.9000	72.1331
845.8000	72.002
845.7000	71.8776
845.6000	71.7484
845.5000	71.6202
845.4000	71.4948
845.3000	71.3707
845.2000	71.2508
845.1000	71.1331
845.0000	71.0212
844.9000	70.9059
844.8000	70.7944
844.7000	70.6884
844.6000	70.5697
844.5000	70.4687
844.4000	70.3609
844.3000	70.2738
844.2000	70.1808
844.1000	70.0842
844.0000	69.9967
843.9000	69.9073
843.8000	69.8271
843.7000	69.7441
843.6000	69.6627
843.5000	69.582
843.4000	69.5086
843.3000	69.4321
843.2000	69.3646
843.1000	69.2924
843.0000	69.2376
842.9000	69.1782
842.8000	69.124
842.7000	69.0644
842.6000	69.0187
842.5000	68.9656
842.4000	68.9201
842.3000	68.8861
842.2000	68.846
842.1000	68.8155
842.0000	68.7826
841.9000	68.7522
841.8000	68.7267
841.7000	68.7076
841.6000	68.6878
841.5000	68.6728
841.4000	68.6585
841.3000	68.6484
841.2000	68.6455
841.1000	68.6413
841.0000	68.6368
840.9000	68.6438
840.8000	68.6468
840.7000	68.6522
840.6000	68.6694
840.5000	68.683
840.4000	68.709
840.3000	68.7367
840.2000	68.7678
840.1000	68.7936
840.0000	68.8265
839.9000	68.8678
839.8000	68.9039
839.7000	68.9426
839.6000	68.9842
839.5000	69.0346
839.4000	69.0815
839.3000	69.1362
839.2000	69.1904
839.1000	69.2503
839.0000	69.3071
838.9000	69.3674
838.8000	69.4283
838.7000	69.4952
838.6000	69.558
838.5000	69.6397
838.4000	69.7172
838.3000	69.7944
838.2000	69.8813
838.1000	69.9669
838.0000	70.0545
837.9000	70.1369
837.8000	70.2351
837.7000	70.333
837.6000	70.445
837.5000	70.5507
837.4000	70.6499
837.3000	70.7651
837.2000	70.8763
837.1000	70.9888
837.0000	71.1082
836.9000	71.2201
836.8000	71.3411
836.7000	71.4626
836.6000	71.5865
836.5000	71.7094
836.4000	71.8327
836.3000	71.9705
836.2000	72.1019
836.1000	72.239
836.0000	72.3677
835.9000	72.5027
835.8000	72.6479
835.7000	72.7814
835.6000	72.918
835.5000	73.0574
835.4000	73.2013
835.3000	73.3488
835.2000	73.5032
835.1000	73.6583
835.0000	73.8024
834.9000	73.9544
834.8000	74.1124
834.7000	74.2589
834.6000	74.412
834.5000	74.5646
834.4000	74.7164
834.3000	74.8624
834.2000	75.0149
834.1000	75.1695
834.0000	75.338
833.9000	75.4926
833.8000	75.64
833.7000	75.7974
833.6000	75.9408
833.5000	76.0836
833.4000	76.2363
833.3000	76.3868
833.2000	76.537
833.1000	76.6826
833.0000	76.8235
832.9000	76.9586
832.8000	77.101
832.7000	77.2471
832.6000	77.3852
832.5000	77.5191
832.4000	77.6454
832.3000	77.7767
832.2000	77.9129
832.1000	78.0328
832.0000	78.1569
831.9000	78.2795
831.8000	78.4007
831.7000	78.5153
831.6000	78.6256
831.5000	78.7376
831.4000	78.8509
831.3000	78.9594
831.2000	79.0602
831.1000	79.1569
831.0000	79.2591
830.9000	79.3666
830.8000	79.4598
830.7000	79.5557
830.6000	79.6367
830.5000	79.7233
830.4000	79.8041
830.3000	79.8778
830.2000	79.9522
830.1000	80.0277
830.0000	80.093
829.9000	80.1589
829.8000	80.2185
829.7000	80.2762
829.6000	80.3282
829.5000	80.3723
829.4000	80.4185
829.3000	80.4506
829.2000	80.4874
829.1000	80.5252
829.0000	80.558
828.9000	80.5824
828.8000	80.5994
828.7000	80.6203
828.6000	80.6334
828.5000	80.6414
828.4000	80.6439
828.3000	80.6423
828.2000	80.6394
828.1000	80.6336
828.0000	80.6252
827.9000	80.6184
827.8000	80.5912
827.7000	80.5655
827.6000	80.531
827.5000	80.4832
827.4000	80.4332
827.3000	80.3955
827.2000	80.3568
827.1000	80.3066
827.0000	80.2509
826.9000	80.1852
826.8000	80.1251
826.7000	80.0595
826.6000	79.9819
826.5000	79.9072
826.4000	79.8314
826.3000	79.747
826.2000	79.6523
826.1000	79.5535
826.0000	79.4574
825.9000	79.3635
825.8000	79.2725
825.7000	79.1568
825.6000	79.047
825.5000	78.9235
825.4000	78.8104
825.3000	78.7003
825.2000	78.5803
825.1000	78.4556
825.0000	78.324
824.9000	78.1847
824.8000	78.0444
824.7000	77.9111
824.6000	77.788
824.5000	77.6518
824.4000	77.5129
824.3000	77.374
824.2000	77.224
824.1000	77.0792
824.0000	76.9348
823.9000	76.7952
823.8000	76.6442
823.7000	76.4863
823.6000	76.3308
823.5000	76.1733
823.4000	76.0213
823.3000	75.8716
823.2000	75.7145
823.1000	75.5518
823.0000	75.3844
822.9000	75.2303
822.8000	75.0683
822.7000	74.9093
822.6000	74.7534
822.5000	74.602
822.4000	74.4383
822.3000	74.2771
822.2000	74.1143
822.1000	73.9562
822.0000	73.7955
821.9000	73.6414
821.8000	73.48
821.7000	73.3239
821.6000	73.166
821.5000	73.015
821.4000	72.8635
821.3000	72.7063
821.2000	72.5564
821.1000	72.4027
821.0000	72.2465
820.9000	72.0932
820.8000	71.9419
820.7000	71.8046
820.6000	71.6517
820.5000	71.506
820.4000	71.3627
820.3000	71.2176
820.2000	71.086
820.1000	70.9485
820.0000	70.8199
819.9000	70.6839
819.8000	70.5494
819.7000	70.4256
819.6000	70.2978
819.5000	70.1702
819.4000	70.0547
819.3000	69.9292
819.2000	69.8189
819.1000	69.6936
819.0000	69.5885
818.9000	69.4857
818.8000	69.384
818.7000	69.2875
818.6000	69.1826
818.5000	69.0903
818.4000	69.0022
818.3000	68.9183
818.2000	68.839
818.1000	68.7497
818.0000	68.6742
817.9000	68.5986
817.8000	68.53
817.7000	68.469
817.6000	68.4031
817.5000	68.3457
817.4000	68.2914
817.3000	68.2346
817.2000	68.187
817.1000	68.1432
817.0000	68.1111
816.9000	68.0772
816.8000	68.0331
816.7000	68.0009
816.6000	67.9725
816.5000	67.9574
816.4000	67.9387
816.3000	67.9256
816.2000	67.9121
816.1000	67.9063
816.0000	67.9003
815.9000	67.8974
815.8000	67.8983
815.7000	67.9121
815.6000	67.925
815.5000	67.9383
815.4000	67.9504
815.3000	67.9615
815.2000	67.9926
815.1000	68.0255
815.0000	68.0582
814.9000	68.0959
814.8000	68.138
814.7000	68.1841
814.6000	68.2295
814.5000	68.2778
814.4000	68.3338
814.3000	68.3975
814.2000	68.4577
814.1000	68.5186
814.0000	68.5895
813.9000	68.6582
813.8000	68.7336
813.7000	68.8155
813.6000	68.8926
813.5000	68.9739
813.4000	69.0599
813.3000	69.1481
813.2000	69.239
813.1000	69.3399
813.0000	69.4386
812.9000	69.5474
812.8000	69.6542
812.7000	69.7615
812.6000	69.879
812.5000	69.9937
812.4000	70.1047
812.3000	70.224
812.2000	70.355
812.1000	70.4805
812.0000	70.6127
811.9000	70.7392
811.8000	70.8743
811.7000	71.0095
811.6000	71.1447
811.5000	71.2817
811.4000	71.4275
811.3000	71.5672
811.2000	71.7118
811.1000	71.8613
811.0000	72.0127
810.9000	72.158
810.8000	72.3082
810.7000	72.4632
810.6000	72.6186
810.5000	72.775
810.4000	72.9248
810.3000	73.0786
810.2000	73.2349
810.1000	73.3915
810.0000	73.5548
809.9000	73.7101
809.8000	73.8747
809.7000	74.0327
809.6000	74.1948
809.5000	74.3555
809.4000	74.5153
809.3000	74.6863
809.2000	74.8511
809.1000	75.0221
809.0000	75.1764
808.9000	75.3348
808.8000	75.505
808.7000	75.6713
808.6000	75.8314
808.5000	75.9953
808.4000	76.159
808.3000	76.3166
808.2000	76.468
808.1000	76.6249
808.0000	76.7777
807.9000	76.9248
807.8000	77.0706
807.7000	77.214
807.6000	77.3626
807.5000	77.4973
807.4000	77.6359
807.3000	77.7782
807.2000	77.9075
807.1000	78.0373
807.0000	78.1682
806.9000	78.2935
806.8000	78.4091
806.7000	78.5281
806.6000	78.6461
806.5000	78.7544
806.4000	78.8579
806.3000	78.9673
806.2000	79.0668
806.1000	79.1681
806.0000	79.259
805.9000	79.348
805.8000	79.4297
805.7000	79.501
805.6000	79.5743
805.5000	79.6486
805.4000	79.7173
805.3000	79.7773
805.2000	79.8355
805.1000	79.8908
805.0000	79.9387
804.9000	79.9824
804.8000	80.0294
804.7000	80.0606
804.6000	80.0879
804.5000	80.1088
804.4000	80.1247
804.3000	80.1422
804.2000	80.1528
804.1000	80.1606
804.0000	80.1602
803.9000	80.154
803.8000	80.1416
803.7000	80.1245
803.6000	80.104
803.5000	80.0773
803.4000	80.045
803.3000	80.0089
803.2000	79.9636
803.1000	79.917
803.0000	79.8708
802.9000	79.8105
802.8000	79.757
802.7000	79.6865
802.6000	79.6215
802.5000	79.543
802.4000	79.4692
802.3000	79.3842
802.2000	79.2957
802.1000	79.2145
802.0000	79.1195
801.9000	79.0231
801.8000	78.9187
801.7000	78.8148
801.6000	78.7067
801.5000	78.5926
801.4000	78.4746
801.3000	78.3605
801.2000	78.2364
801.1000	78.1104
801.0000	77.9784
800.9000	77.8489
800.8000	77.7111
800.7000	77.5734
800.6000	77.4277
800.5000	77.2755
800.4000	77.1264
800.3000	76.9744
800.2000	76.8179
800.1000	76.6547
800.0000	76.4912
799.9000	76.3306
799.8000	76.1675
799.7000	75.9982
799.6000	75.8316
799.5000	75.6639
799.4000	75.4858
799.3000	75.3205
799.2000	75.1472
799.1000	74.9743
799.0000	74.8075
798.9000	74.6326
798.8000	74.4592
798.7000	74.2846
798.6000	74.1239
798.5000	73.9523
798.4000	73.7838
798.3000	73.6106
798.2000	73.4392
798.1000	73.2665
798.0000	73.0899
797.9000	72.9193
797.8000	72.7612
797.7000	72.5904
797.6000	72.4302
797.5000	72.2676
797.4000	72.0975
797.3000	71.9386
797.2000	71.7866
797.1000	71.6294
797.0000	71.4622
796.9000	71.3133
796.8000	71.1617
796.7000	71.0185
796.6000	70.8681
796.5000	70.726
796.4000	70.5835
796.3000	70.4462
796.2000	70.3041
796.1000	70.1681
796.0000	70.0337
795.9000	69.9019
795.8000	69.7805
795.7000	69.6518
795.6000	69.5224
795.5000	69.3994
795.4000	69.2848
795.3000	69.171
795.2000	69.0623
795.1000	68.9497
795.0000	68.8535
794.9000	68.7497
794.8000	68.6576
794.7000	68.5649
794.6000	68.4777
794.5000	68.397
794.4000	68.3137
794.3000	68.2376
794.2000	68.1657
794.1000	68.1011
794.0000	68.0438
793.9000	67.9893
793.8000	67.9311
793.7000	67.8766
793.6000	67.8311
793.5000	67.7851
793.4000	67.7393
793.3000	67.7052
793.2000	67.6773
793.1000	67.6524
793.0000	67.6289
792.9000	67.6082
792.8000	67.5958
792.7000	67.59
792.6000	67.5827
792.5000	67.5769
792.4000	67.5751
792.3000	67.5788
792.2000	67.588
792.1000	67.6041
792.0000	67.6228
791.9000	67.6541
791.8000	67.6886
791.7000	67.7277
791.6000	67.7572
791.5000	67.7933
791.4000	67.8386
791.3000	67.8894
791.2000	67.9369
791.1000	67.9907
791.0000	68.0505
790.9000	68.1147
790.8000	68.1853
790.7000	68.264
790.6000	68.3428
790.5000	68.429
790.4000	68.5148
790.3000	68.5989
790.2000	68.6882
790.1000	68.7807
790.0000	68.8859
789.9000	68.9925
789.8000	69.1008
789.7000	69.2084
789.6000	69.3296
789.5000	69.4495
789.4000	69.5702
789.3000	69.6971
789.2000	69.8229
789.1000	69.9497
789.0000	70.088
788.9000	70.2229
788.8000	70.3594
788.7000	70.4983
788.6000	70.6457
788.5000	70.7943
788.4000	70.9398
788.3000	71.0917
788.2000	71.2486
788.1000	71.4096
788.0000	71.5669
787.9000	71.7253
787.8000	71.888
787.7000	72.048
787.6000	72.2144
787.5000	72.3793
787.4000	72.5413
787.3000	72.7104
787.2000	72.876
787.1000	73.0493
787.0000	73.2165
786.9000	73.3845
786.8000	73.5562
786.7000	73.7245
786.6000	73.8973
786.5000	74.0677
786.4000	74.2346
786.3000	74.4016
786.2000	74.5715
786.1000	74.7433
786.0000	74.9089
785.9000	75.0861
785.8000	75.2613
785.7000	75.4295
785.6000	75.6014
785.5000	75.768
785.4000	75.9306
785.3000	76.0962
785.2000	76.2617
785.1000	76.4222
785.0000	76.5803
784.9000	76.7256
784.8000	76.8822
784.7000	77.0388
784.6000	77.1867
784.5000	77.3362
784.4000	77.482
784.3000	77.6155
784.2000	77.7467
784.1000	77.8738
784.0000	78.0044
783.9000	78.1342
783.8000	78.2551
783.7000	78.3701
783.6000	78.4835
783.5000	78.5942
783.4000	78.7027
783.3000	78.8131
783.2000	78.9041
783.1000	78.9937
783.0000	79.0853
782.9000	79.1679
782.8000	79.245
782.7000	79.3141
782.6000	79.383
782.5000	79.4523
782.4000	79.511
782.3000	79.5631
782.2000	79.6139
782.1000	79.661
782.0000	79.6979
781.9000	79.7319
781.8000	79.7558
781.7000	79.7784
781.6000	79.8032
781.5000	79.816
781.4000	79.8171
781.3000	79.8207
781.2000	79.8197
781.1000	79.8147
781.0000	79.7971
780.9000	79.7721
780.8000	79.7446
780.7000	79.7144
780.6000	79.675
780.5000	79.633
780.4000	79.5884
780.3000	79.535
780.2000	79.4761
780.1000	79.4116
780.0000	79.3398
779.9000	79.2708
779.8000	79.1974
779.7000	79.1093
779.6000	79.0154
779.5000	78.9196
779.4000	78.8317
779.3000	78.7306
779.2000	78.6252
779.1000	78.5154
779.0000	78.4104
778.9000	78.2901
778.8000	78.1595
778.7000	78.0319
778.6000	77.9031
778.5000	77.7654
778.4000	77.6307
778.3000	77.4845
778.2000	77.3373
778.1000	77.198
778.0000	77.0495
777.9000	76.8976
777.8000	76.7391
777.7000	76.5827
777.6000	76.4221
777.5000	76.2542
777.4000	76.0796
777.3000	75.9113
777.2000	75.7458
777.1000	75.5806
777.0000	75.4028
776.9000	75.2353
776.8000	75.0607
776.7000	74.8883
776.6000	74.7201
776.5000	74.5405
776.4000	74.3645
776.3000	74.194
776.2000	74.014
776.1000	73.8369
776.0000	73.6577
775.9000	73.4837
775.8000	73.3115
775.7000	73.1402
775.6000	72.971
775.5000	72.7897
775.4000	72.6216
775.3000	72.4509
775.2000	72.2801
775.1000	72.1123
775.0000	71.9375
774.9000	71.7707
774.8000	71.6045
774.7000	71.438
774.6000	71.2778
774.5000	71.1196
774.4000	70.9643
774.3000	70.8084
774.2000	70.6584
774.1000	70.5062
774.0000	70.3593
773.9000	70.2195
773.8000	70.0784
773.7000	69.9423
773.6000	69.8099
773.5000	69.6812
773.4000	69.5506
773.3000	69.4287
773.2000	69.3088
773.1000	69.1903
773.0000	69.077
772.9000	68.9677
772.8000	68.8618
772.7000	68.7605
772.6000	68.6571
772.5000	68.5652
772.4000	68.4725
772.3000	68.386
772.2000	68.2997
772.1000	68.2198
772.0000	68.1477
771.9000	68.0731
771.8000	68.0131
771.7000	67.9488
771.6000	67.8964
771.5000	67.8456
771.4000	67.7966
771.3000	67.7517
771.2000	67.7122
771.1000	67.6806
771.0000	67.6567
770.9000	67.6279
770.8000	67.6071
770.7000	67.589
770.6000	67.5808
770.5000	67.5742
770.4000	67.5719
770.3000	67.5703
770.2000	67.573
770.1000	67.5786
770.0000	67.5927
769.9000	67.6121
769.8000	67.6383
769.7000	67.6704
769.6000	67.7071
769.5000	67.7444
769.4000	67.7817
769.3000	67.833
769.2000	67.8827
769.1000	67.9436
769.0000	68.0081
768.9000	68.0724
768.8000	68.1454
768.7000	68.2266
768.6000	68.308
768.5000	68.4034
768.4000	68.4918
768.3000	68.5911
768.2000	68.6896
768.1000	68.7883
768.0000	68.8899
767.9000	68.9986
767.8000	69.1193
767.7000	69.2381
767.6000	69.3613
767.5000	69.4856
767.4000	69.6139
767.3000	69.749
767.2000	69.8789
767.1000	70.0136
767.0000	70.1576
766.9000	70.2992
766.8000	70.4453
766.7000	70.5852
766.6000	70.743
766.5000	70.8988
766.4000	71.0588
766.3000	71.2191
766.2000	71.3789
766.1000	71.5439
766.0000	71.7108
765.9000	71.8793
765.8000	72.0471
765.7000	72.2227
765.6000	72.3969
765.5000	72.5738
765.4000	72.7536
765.3000	72.9356
765.2000	73.1174
765.1000	73.2997
765.0000	73.4808
764.9000	73.6656
764.8000	73.8473
764.7000	74.0258
764.6000	74.211
764.5000	74.3891
764.4000	74.5754
764.3000	74.759
764.2000	74.9405
764.1000	75.1138
764.0000	75.2944
763.9000	75.4729
763.8000	75.6476
763.7000	75.8162
763.6000	75.9914
763.5000	76.1632
763.4000	76.3266
763.3000	76.4945
763.2000	76.6598
763.1000	76.8237
763.0000	76.9799
762.9000	77.1376
762.8000	77.2911
762.7000	77.4424
762.6000	77.5894
762.5000	77.7379
762.4000	77.8789
762.3000	78.0156
762.2000	78.1464
762.1000	78.2769
762.0000	78.3992
761.9000	78.5217
761.8000	78.6422
761.7000	78.7472
761.6000	78.8535
761.5000	78.9613
761.4000	79.0541
761.3000	79.1492
761.2000	79.2325
761.1000	79.3091
761.0000	79.3856
760.9000	79.4508
760.8000	79.5136
760.7000	79.5768
760.6000	79.6315
760.5000	79.6769
760.4000	79.7136
760.3000	79.751
760.2000	79.7764
760.1000	79.8018
760.0000	79.8177
759.9000	79.8262
759.8000	79.8392
759.7000	79.8355
759.6000	79.826
759.5000	79.8164
759.4000	79.7967
759.3000	79.7727
759.2000	79.7385
759.1000	79.6934
759.0000	79.6524
758.9000	79.6093
758.8000	79.561
758.7000	79.4975
758.6000	79.4306
758.5000	79.3581
758.4000	79.2808
758.3000	79.1958
758.2000	79.1009
758.1000	79.0078
758.0000	78.9087
757.9000	78.8025
757.8000	78.6893
757.7000	78.5724
757.6000	78.4597
757.5000	78.344
757.4000	78.2112
757.3000	78.0728
757.2000	77.9346
757.1000	77.7945
757.0000	77.6504
756.9000	77.506
756.8000	77.3524
756.7000	77.2026
756.6000	77.0499
756.5000	76.8894
756.4000	76.7342
756.3000	76.5707
756.2000	76.4083
756.1000	76.2415
756.0000	76.0647
755.9000	75.8872
755.8000	75.7102
755.7000	75.5349
755.6000	75.3556
755.5000	75.1741
755.4000	74.9917
755.3000	74.8107
755.2000	74.6332
755.1000	74.4438
755.0000	74.2587
754.9000	74.0785
754.8000	73.89
754.7000	73.7072
754.6000	73.5208
754.5000	73.3394
754.4000	73.157
754.3000	72.9722
754.2000	72.7928
754.1000	72.6144
754.0000	72.436
753.9000	72.2591
753.8000	72.0889
753.7000	71.9142
753.6000	71.7398
753.5000	71.575
753.4000	71.4085
753.3000	71.2428
753.2000	71.0805
753.1000	70.9224
753.0000	70.7695
752.9000	70.6169
752.8000	70.4698
752.7000	70.3254
752.6000	70.1869
752.5000	70.0439
752.4000	69.9092
752.3000	69.7776
752.2000	69.6478
752.1000	69.5234
752.0000	69.4048
751.9000	69.2892
751.8000	69.182
751.7000	69.0699
751.6000	68.9689
751.5000	68.8696
751.4000	68.7715
751.3000	68.6832
751.2000	68.6015
751.1000	68.5277
751.0000	68.4529
750.9000	68.3885
750.8000	68.3217
750.7000	68.2658
750.6000	68.2116
750.5000	68.1612
750.4000	68.1154
750.3000	68.071
750.2000	68.0315
750.1000	68.0072
750.0000	67.9821
749.9000	67.9658
749.8000	67.9531
749.7000	67.9434
749.6000	67.9358
749.5000	67.9328
749.4000	67.9381
749.3000	67.9471
749.2000	67.968
749.1000	67.9866
749.0000	68.0155
748.9000	68.0475
748.8000	68.0857
748.7000	68.1345
748.6000	68.1831
748.5000	68.231
748.4000	68.2945
748.3000	68.3499
748.2000	68.4197
748.1000	68.4937
748.0000	68.5739
747.9000	68.6584
747.8000	68.7469
747.7000	68.8417
747.6000	68.9387
747.5000	69.0449
747.4000	69.1492
747.3000	69.2646
747.2000	69.3816
747.1000	69.498
747.0000	69.6227
746.9000	69.7553
746.8000	69.8812
746.7000	70.0202
746.6000	70.1632
746.5000	70.3098
746.4000	70.4561
746.3000	70.6128
746.2000	70.7666
746.1000	70.9251
746.0000	71.0862
745.9000	71.2521
745.8000	71.4178
745.7000	71.5838
745.6000	71.7573
745.5000	71.9347
745.4000	72.115
745.3000	72.2949
745.2000	72.4788
745.1000	72.6643
745.0000	72.8515
744.9000	73.0361
744.8000	73.2275
744.7000	73.4141
744.6000	73.6064
744.5000	73.797
744.4000	73.9881
744.3000	74.1777
744.2000	74.3731
744.1000	74.5698
744.0000	74.7622
743.9000	74.9522
743.8000	75.1387
743.7000	75.3251
743.6000	75.5128
743.5000	75.6973
743.4000	75.8809
743.3000	76.071
743.2000	76.2504
743.1000	76.4244
743.0000	76.6017
742.9000	76.7728
742.8000	76.9466
742.7000	77.1144
742.6000	77.2811
742.5000	77.4423
742.4000	77.5977
742.3000	77.7525
742.2000	77.9049
742.1000	78.0571
742.0000	78.2005
741.9000	78.3478
741.8000	78.4809
741.7000	78.6057
741.6000	78.7289
741.5000	78.8557
741.4000	78.9716
741.3000	79.0818
741.2000	79.1876
741.1000	79.286
741.0000	79.3776
740.9000	79.4616
740.8000	79.5448
740.7000	79.6228
740.6000	79.6935
740.5000	79.755
740.4000	79.8182
740.3000	79.8671
740.2000	79.9111
740.1000	79.946
740.0000	79.9261
739.9000	79.9528
739.8000	79.9679
739.7000	79.9818
739.6000	79.9854
739.5000	79.9817
739.4000	79.9782
739.3000	79.9663
739.2000	79.9451
739.1000	79.9131
739.0000	79.8805
738.9000	79.8372
738.8000	79.7904
738.7000	79.7344
738.6000	79.6775
738.5000	79.6126
738.4000	79.5428
738.3000	79.462
738.2000	79.3776
738.1000	79.2842
738.0000	79.1915
737.9000	79.0906
737.8000	78.983
737.7000	78.8727
737.6000	78.7589
737.5000	78.6431
737.4000	78.5167
737.3000	78.3876
737.2000	78.2562
737.1000	78.1197
737.0000	77.9797
736.9000	77.8331
736.8000	77.6826
736.7000	77.5281
736.6000	77.374
736.5000	77.216
736.4000	77.0545
736.3000	76.8888
736.2000	76.7187
736.1000	76.5501
736.0000	76.3737
735.9000	76.1938
735.8000	76.0146
735.7000	75.8384
735.6000	75.6547
735.5000	75.4705
735.4000	75.2804
735.3000	75.1013
735.2000	74.9152
735.1000	74.7331
735.0000	74.5496
734.9000	74.3637
734.8000	74.1771
734.7000	73.9915
734.6000	73.8105
734.5000	73.6267
734.4000	73.4471
734.3000	73.2686
734.2000	73.0909
734.1000	72.9145
734.0000	72.7375
733.9000	72.5651
733.8000	72.3971
733.7000	72.2248
733.6000	72.0591
733.5000	71.8929
733.4000	71.7257
733.3000	71.5691
733.2000	71.4141
733.1000	71.2648
733.0000	71.1128
732.9000	70.9645
732.8000	70.8204
732.7000	70.6838
732.6000	70.5516
732.5000	70.4199
732.4000	70.2935
732.3000	70.1721
732.2000	70.0538
732.1000	69.939
732.0000	69.8307
731.9000	69.7259
731.8000	69.6318
731.7000	69.5369
731.6000	69.4451
731.5000	69.3579
731.4000	69.2782
731.3000	69.2064
731.2000	69.1393
731.1000	69.0748
731.0000	69.0171
730.9000	68.9603
730.8000	68.9148
730.7000	68.8706
730.6000	68.8326
730.5000	68.8063
730.4000	68.7809
730.3000	68.7585
730.2000	68.741
730.1000	68.7302
730.0000	68.7264
729.9000	68.7273
729.8000	68.7356
729.7000	68.7476
729.6000	68.7638
729.5000	68.7886
729.4000	68.8148
729.3000	68.8531
729.2000	68.8961
729.1000	68.9456
729.0000	69.0005
728.9000	69.0492
728.8000	69.1105
728.7000	69.1825
728.6000	69.2552
728.5000	69.334
728.4000	69.4183
728.3000	69.5092
728.2000	69.6049
728.1000	69.7043
728.0000	69.8087
727.9000	69.9171
727.8000	70.0343
727.7000	70.1522
727.6000	70.2717
727.5000	70.398
727.4000	70.5266
727.3000	70.668
727.2000	70.8059
727.1000	70.953
727.0000	71.105
726.9000	71.2583
726.8000	71.4163
726.7000	71.5751
726.6000	71.736
726.5000	71.9014
726.4000	72.0734
726.3000	72.2456
726.2000	72.4198
726.1000	72.5921
726.0000	72.7731
725.9000	72.9519
725.8000	73.1361
725.7000	73.3205
725.6000	73.5127
725.5000	73.6987
725.4000	73.8879
725.3000	74.0748
725.2000	74.265
725.1000	74.4565
725.0000	74.6502
724.9000	74.845
724.8000	75.038
724.7000	75.2317
724.6000	75.4239
724.5000	75.617
724.4000	75.8034
724.3000	75.9968
724.2000	76.1863
724.1000	76.3768
724.0000	76.5611
723.9000	76.7424
723.8000	76.9224
723.7000	77.1045
723.6000	77.283
723.5000	77.4587
723.4000	77.6274
723.3000	77.7924
723.2000	77.9551
723.1000	78.1106
723.0000	78.2655
722.9000	78.4232
722.8000	78.5711
722.7000	78.713
722.6000	78.851
722.5000	78.9793
722.4000	79.1086
722.3000	79.2356
722.2000	79.3504
722.1000	79.4611
722.0000	79.5656
721.9000	79.6642
721.8000	79.7617
721.7000	79.8486
721.6000	79.9264
721.5000	80.003
721.4000	80.0709
721.3000	80.1296
721.2000	80.1889
721.1000	80.2348
721.0000	80.2725
720.9000	80.3059
720.8000	80.3296
720.7000	80.3476
720.6000	80.3644
720.5000	80.3742
720.4000	80.3701
720.3000	80.3636
720.2000	80.3481
720.1000	80.3212
720.0000	80.2961
719.9000	80.2595
719.8000	80.2183
719.7000	80.1713
719.6000	80.1138
719.5000	80.054
719.4000	79.989
719.3000	79.9217
719.2000	79.8413
719.1000	79.7558
719.0000	79.6668
718.9000	79.5666
718.8000	79.4704
718.7000	79.3659
718.6000	79.2507
718.5000	79.1366
718.4000	79.0122
718.3000	78.8862
718.2000	78.7529
718.1000	78.613
718.0000	78.4708
717.9000	78.3232
717.8000	78.1739
717.7000	78.0157
717.6000	77.8572
717.5000	77.6939
717.4000	77.5266
717.3000	77.3602
717.2000	77.1899
717.1000	77.0154
717.0000	76.8457
716.9000	76.6746
716.8000	76.4963
716.7000	76.3146
716.6000	76.1377
716.5000	75.9572
716.4000	75.7791
716.3000	75.5964
716.2000	75.4145
716.1000	75.2335
716.0000	75.0527
715.9000	74.8711
715.8000	74.6894
715.7000	74.506
715.6000	74.3212
715.5000	74.1408
715.4000	73.9554
715.3000	73.7708
715.2000	73.5957
715.1000	73.4231
715.0000	73.2451
714.9000	73.0747
714.8000	72.9083
714.7000	72.7425
714.6000	72.5775
714.5000	72.4105
714.4000	72.2584
714.3000	72.1042
714.2000	71.9559
714.1000	71.8114
714.0000	71.6693
713.9000	71.5298
713.8000	71.3945
713.7000	71.267
713.6000	71.1369
713.5000	71.0188
713.4000	70.9035
713.3000	70.7901
713.2000	70.6792
713.1000	70.5834
713.0000	70.4866
712.9000	70.403
712.8000	70.3167
712.7000	70.2355
712.6000	70.1629
712.5000	70.0944
712.4000	70.0336
712.3000	69.9779
712.2000	69.9299
712.1000	69.8842
712.0000	69.8481
711.9000	69.8128
711.8000	69.7922
711.7000	69.7765
711.6000	69.7632
711.5000	69.7519
711.4000	69.7528
711.3000	69.7552
711.2000	69.7657
711.1000	69.7866
711.0000	69.8077
710.9000	69.8382
710.8000	69.8709
710.7000	69.9136
710.6000	69.9615
710.5000	70.0173
710.4000	70.0816
710.3000	70.1495
710.2000	70.2166
710.1000	70.2906
710.0000	70.3775
709.9000	70.4697
709.8000	70.5656
709.7000	70.6665
709.6000	70.7714
709.5000	70.8871
709.4000	71.0035
709.3000	71.1243
709.2000	71.2531
709.1000	71.3815
709.0000	71.5156
708.9000	71.6579
708.8000	71.804
708.7000	71.9525
708.6000	72.1067
708.5000	72.269
708.4000	72.4287
708.3000	72.5936
708.2000	72.7605
708.1000	72.9319
708.0000	73.1023
707.9000	73.2722
707.8000	73.4549
707.7000	73.6411
707.6000	73.8265
707.5000	74.0154
707.4000	74.2059
707.3000	74.3963
707.2000	74.5847
707.1000	74.7794
707.0000	74.9716
706.9000	75.1609
706.8000	75.3552
706.7000	75.5466
706.6000	75.7382
706.5000	75.9313
706.4000	76.1301
706.3000	76.3265
706.2000	76.5136
706.1000	76.6972
706.0000	76.8811
705.9000	77.0656
705.8000	77.2531
705.7000	77.4328
705.6000	77.6125
705.5000	77.7848
705.4000	77.9604
705.3000	78.1342
705.2000	78.2998
705.1000	78.4644
705.0000	78.6235
704.9000	78.7813
704.8000	78.9293
704.7000	79.0726
704.6000	79.2157
704.5000	79.3579
704.4000	79.4933
704.3000	79.6186
704.2000	79.7366
704.1000	79.8524
704.0000	79.9608
703.9000	80.0654
703.8000	80.1596
703.7000	80.2499
703.6000	80.3336
703.5000	80.4071
703.4000	80.4795
703.3000	80.5413
703.2000	80.5947
703.1000	80.6442
703.0000	80.6845
702.9000	80.7147
702.8000	80.7443
702.7000	80.7662
702.6000	80.7763
702.5000	80.784
702.4000	80.7818
702.3000	80.7719
702.2000	80.7581
702.1000	80.7343
702.0000	80.7019
701.9000	80.6649
701.8000	80.6202
701.7000	80.5623
701.6000	80.5017
701.5000	80.4348
701.4000	80.3597
701.3000	80.276
701.2000	80.1848
701.1000	80.088
701.0000	79.9901
700.9000	79.8781
700.8000	79.7652
700.7000	79.6433
700.6000	79.5153
700.5000	79.3802
700.4000	79.2449
700.3000	79.103
700.2000	78.9528
700.1000	78.8037
700.0000	78.6488
699.9000	78.489
699.8000	78.3243
699.7000	78.1604
699.6000	77.9894
699.5000	77.8151
699.4000	77.6362
699.3000	77.4598
699.2000	77.2784
699.1000	77.0985
699.0000	76.9146
698.9000	76.7289
698.8000	76.5403
698.7000	76.356
698.6000	76.1739
698.5000	75.988
698.4000	75.8039
698.3000	75.6153
698.2000	75.4339
698.1000	75.2516
698.0000	75.0691
697.9000	74.8884
697.8000	74.7082
697.7000	74.5305
697.6000	74.356
697.5000	74.1812
697.4000	74.0113
697.3000	73.843
697.2000	73.6766
697.1000	73.5122
697.0000	73.3483
696.9000	73.1914
696.8000	73.0339
696.7000	72.8856
696.6000	72.7345
696.5000	72.5893
696.4000	72.4489
696.3000	72.3156
696.2000	72.1895
696.1000	72.0617
696.0000	71.9381
695.9000	71.8198
695.8000	71.7087
695.7000	71.6042
695.6000	71.5034
695.5000	71.4085
695.4000	71.3183
695.3000	71.2333
695.2000	71.1555
695.1000	71.081
695.0000	71.0143
694.9000	70.9525
694.8000	70.8965
694.7000	70.8444
694.6000	70.7966
694.5000	70.7603
694.4000	70.7293
694.3000	70.7051
694.2000	70.6828
694.1000	70.668
694.0000	70.6603
693.9000	70.6546
693.8000	70.657
693.7000	70.6693
693.6000	70.686
693.5000	70.7092
693.4000	70.7355
693.3000	70.7704
693.2000	70.8113
693.1000	70.8608
693.0000	70.9159
692.9000	70.9704
692.8000	71.032
692.7000	71.1026
692.6000	71.1779
692.5000	71.2612
692.4000	71.3478
692.3000	71.4457
692.2000	71.549
692.1000	71.6539
692.0000	71.765
691.9000	71.8796
691.8000	72.0034
691.7000	72.1336
691.6000	72.2649
691.5000	72.4002
691.4000	72.5409
691.3000	72.6908
691.2000	72.8441
691.1000	72.999
691.0000	73.1602
690.9000	73.3258
690.8000	73.4956
690.7000	73.6654
690.6000	73.8373
690.5000	74.0137
690.4000	74.1971
690.3000	74.3845
690.2000	74.5733
690.1000	74.7552
690.0000	74.948
689.9000	75.1403
689.8000	75.3303
689.7000	75.526
689.6000	75.7179
689.5000	75.9138
689.4000	76.1126
689.3000	76.3061
689.2000	76.4983
689.1000	76.6923
689.0000	76.8909
688.9000	77.0853
688.8000	77.2764
688.7000	77.4643
688.6000	77.6513
688.5000	77.8474
688.4000	78.0329
688.3000	78.2178
688.2000	78.3999
688.1000	78.5766
688.0000	78.757
687.9000	78.9292
687.8000	79.0941
687.7000	79.2588
687.6000	79.4227
687.5000	79.5795
687.4000	79.7289
687.3000	79.8771
687.2000	80.0184
687.1000	80.1533
687.0000	80.2826
686.9000	80.4014
686.8000	80.519
686.7000	80.6325
686.6000	80.7378
686.5000	80.8381
686.4000	80.9295
686.3000	81.0182
686.2000	81.098
686.1000	81.1702
686.0000	81.2341
685.9000	81.2946
685.8000	81.3417
685.7000	81.3858
685.6000	81.4195
685.5000	81.4526
685.4000	81.4771
685.3000	81.4901
685.2000	81.4943
685.1000	81.4888
685.0000	81.4814
684.9000	81.4631
684.8000	81.4377
684.7000	81.401
684.6000	81.3614
684.5000	81.3128
684.4000	81.2594
684.3000	81.1938
684.2000	81.1333
684.1000	81.0567
684.0000	80.9762
683.9000	80.8899
683.8000	80.7957
683.7000	80.6983
683.6000	80.5953
683.5000	80.4853
683.4000	80.3681
683.3000	80.25
683.2000	80.1253
683.1000	80.0008
683.0000	79.8652
682.9000	79.7305
682.8000	79.5862
682.7000	79.441
682.6000	79.2841
682.5000	79.1279
682.4000	78.9705
682.3000	78.8086
682.2000	78.6431
682.1000	78.4744
682.0000	78.3021
681.9000	78.13
681.8000	77.9559
681.7000	77.7765
681.6000	77.598
681.5000	77.4122
681.4000	77.2288
681.3000	77.0423
681.2000	76.8596
681.1000	76.6787
681.0000	76.4978
680.9000	76.3182
680.8000	76.1345
680.7000	75.949
680.6000	75.7694
680.5000	75.5903
680.4000	75.415
680.3000	75.2375
680.2000	75.0647
680.1000	74.8937
680.0000	74.7232
679.9000	74.5588
679.8000	74.3998
679.7000	74.2415
679.6000	74.0828
679.5000	73.9318
679.4000	73.785
679.3000	73.642
679.2000	73.5052
679.1000	73.3732
679.0000	73.2487
678.9000	73.1331
678.8000	73.0205
678.7000	72.9178
678.6000	72.8182
678.5000	72.7278
678.4000	72.6443
678.3000	72.5624
678.2000	72.4938
678.1000	72.4305
678.0000	72.3791
677.9000	72.3254
677.8000	72.2825
677.7000	72.2483
677.6000	72.2223
677.5000	72.2064
677.4000	72.1898
677.3000	72.1831
677.2000	72.1862
677.1000	72.194
677.0000	72.2098
676.9000	72.2328
676.8000	72.2627
676.7000	72.3025
676.6000	72.3405
676.5000	72.3907
676.4000	72.4461
676.3000	72.512
676.2000	72.5872
676.1000	72.6633
676.0000	72.7482
675.9000	72.8374
675.8000	72.9321
675.7000	73.0319
675.6000	73.1393
675.5000	73.2495
675.4000	73.3658
675.3000	73.4877
675.2000	73.6136
675.1000	73.7459
675.0000	73.8864
674.9000	74.0303
674.8000	74.1814
674.7000	74.3347
674.6000	74.4868
674.5000	74.6443
674.4000	74.8056
674.3000	74.9692
674.2000	75.1402
674.1000	75.3137
674.0000	75.484
673.9000	75.663
673.8000	75.8441
673.7000	76.025
673.6000	76.2061
673.5000	76.3886
673.4000	76.572
673.3000	76.756
673.2000	76.9342
673.1000	77.1177
673.0000	77.3007
672.9000	77.4847
672.8000	77.6663
672.7000	77.8476
672.6000	78.0286
672.5000	78.203
672.4000	78.3817
672.3000	78.5591
672.2000	78.7292
672.1000	78.9002
672.0000	79.0682
671.9000	79.2311
671.8000	79.3922
671.7000	79.5471
671.6000	79.7021
671.5000	79.8471
671.4000	79.9921
671.3000	80.1315
671.2000	80.2667
671.1000	80.3952
671.0000	80.5169
670.9000	80.6338
670.8000	80.7413
670.7000	80.8414
670.6000	80.9385
670.5000	81.0244
670.4000	81.1089
670.3000	81.1886
670.2000	81.2613
670.1000	81.3217
670.0000	81.379
669.9000	81.4258
669.8000	81.4655
669.7000	81.4989
669.6000	81.5246
669.5000	81.544
669.4000	81.5582
669.3000	81.5631
669.2000	81.5618
669.1000	81.5544
669.0000	81.5359
668.9000	81.5132
668.8000	81.4827
668.7000	81.4414
668.6000	81.3961
668.5000	81.3461
668.4000	81.2807
668.3000	81.2189
668.2000	81.1458
668.1000	81.0662
668.0000	80.9778
667.9000	80.8854
667.8000	80.7851
667.7000	80.682
667.6000	80.5743
667.5000	80.4527
667.4000	80.3324
667.3000	80.2061
667.2000	80.0742
667.1000	79.9365
667.0000	79.7946
666.9000	79.6481
666.8000	79.5034
666.7000	79.3509
666.6000	79.1925
666.5000	79.0348
666.4000	78.8787
666.3000	78.7139
666.2000	78.5461
666.1000	78.3779
666.0000	78.205
665.9000	78.0349
665.8000	77.8657
665.7000	77.691
665.6000	77.518
665.5000	77.3498
665.4000	77.174
665.3000	77.0019
665.2000	76.8303
665.1000	76.6589
665.0000	76.4943
664.9000	76.3224
664.8000	76.1555
664.7000	75.9921
664.6000	75.8325
664.5000	75.6733
664.4000	75.5172
664.3000	75.3641
664.2000	75.2157
664.1000	75.0737
664.0000	74.9358
663.9000	74.7979
663.8000	74.6651
663.7000	74.5375
663.6000	74.4142
663.5000	74.2953
663.4000	74.1799
663.3000	74.0749
663.2000	73.9717
663.1000	73.8772
663.0000	73.7825
662.9000	73.6996
662.8000	73.6234
662.7000	73.5526
662.6000	73.4856
662.5000	73.4258
662.4000	73.3682
662.3000	73.3219
662.2000	73.2804
662.1000	73.2511
662.0000	73.2229
661.9000	73.2017
661.8000	73.1883
661.7000	73.1825
661.6000	73.1827
661.5000	73.1902
661.4000	73.2098
661.3000	73.2284
661.2000	73.257
661.1000	73.2911
661.0000	73.3314
660.9000	73.3794
660.8000	73.4352
660.7000	73.4967
660.6000	73.5673
660.5000	73.6366
660.4000	73.7204
660.3000	73.8087
660.2000	73.9029
660.1000	74.0027
660.0000	74.1087
659.9000	74.2178
659.8000	74.3329
659.7000	74.4547
659.6000	74.5789
659.5000	74.7088
659.4000	74.8415
659.3000	74.9832
659.2000	75.1264
659.1000	75.2778
659.0000	75.428
658.9000	75.5865
658.8000	75.7396
658.7000	75.9008
658.6000	76.0646
658.5000	76.2307
658.4000	76.3989
658.3000	76.5686
658.2000	76.7377
658.1000	76.9103
658.0000	77.088
657.9000	77.267
657.8000	77.4435
657.7000	77.6158
657.6000	77.7865
657.5000	77.9563
657.4000	78.1287
657.3000	78.2966
657.2000	78.4676
657.1000	78.6373
657.0000	78.7983
656.9000	78.9616
656.8000	79.1203
656.7000	79.2785
656.6000	79.4316
656.5000	79.5824
656.4000	79.7285
656.3000	79.8718
656.2000	80.0097
656.1000	80.1452
656.0000	80.2807
655.9000	80.4093
655.8000	80.5293
655.7000	80.648
655.6000	80.7596
655.5000	80.8621
655.4000	80.9658
655.3000	81.0593
655.2000	81.1399
655.1000	81.2166
655.0000	81.2921
654.9000	81.3623
654.8000	81.4195
654.7000	81.4685
654.6000	81.5168
654.5000	81.55
654.4000	81.5764
654.3000	81.5928
654.2000	81.6084
654.1000	81.6107
654.0000	81.6099
653.9000	81.597
653.8000	81.5755
653.7000	81.5484
653.6000	81.5198
653.5000	81.4803
653.4000	81.4285
653.3000	81.3703
653.2000	81.3074
653.1000	81.2353
653.0000	81.1559
652.9000	81.0742
652.8000	80.9854
652.7000	80.8903
652.6000	80.7838
652.5000	80.6778
652.4000	80.5635
652.3000	80.4485
652.2000	80.3221
652.1000	80.1895
652.0000	80.0522
651.9000	79.9126
651.8000	79.7719
651.7000	79.6233
651.6000	79.4731
651.5000	79.3196
651.4000	79.1668
651.3000	79.0052
651.2000	78.8473
651.1000	78.6852
651.0000	78.5247
650.9000	78.3553
650.8000	78.1878
650.7000	78.0202
650.6000	77.8575
650.5000	77.694
650.4000	77.5325
650.3000	77.3646
650.2000	77.1966
650.1000	77.0314
650.0000	76.8696
649.9000	76.7101
649.8000	76.55
649.7000	76.395
649.6000	76.2406
649.5000	76.0873
649.4000	75.9388
649.3000	75.7973
649.2000	75.6537
649.1000	75.5176
649.0000	75.3828
648.9000	75.2524
648.8000	75.1278
648.7000	75.013
648.6000	74.9035
648.5000	74.797
648.4000	74.6933
648.3000	74.5986
648.2000	74.507
648.1000	74.4241
648.0000	74.3411
647.9000	74.2698
647.8000	74.205
647.7000	74.1468
647.6000	74.098
647.5000	74.0504
647.4000	74.0143
647.3000	73.9813
647.2000	73.9561
647.1000	73.9338
647.0000	73.9208
646.9000	73.9176
646.8000	73.919
646.7000	73.9262
646.6000	73.9411
646.5000	73.9616
646.4000	73.9949
646.3000	74.0318
646.2000	74.0742
646.1000	74.1202
646.0000	74.1763
645.9000	74.24
645.8000	74.3044
645.7000	74.381
645.6000	74.4606
645.5000	74.5492
645.4000	74.6419
645.3000	74.7393
645.2000	74.8442
645.1000	74.9533
645.0000	75.0679
644.9000	75.1904
644.8000	75.3121
644.7000	75.4405
644.6000	75.5725
644.5000	75.7135
644.4000	75.8539
644.3000	75.9961
644.2000	76.1481
644.1000	76.2968
644.0000	76.4458
643.9000	76.602
643.8000	76.7608
643.7000	76.9184
643.6000	77.0802
643.5000	77.2462
643.4000	77.4101
643.3000	77.5726
643.2000	77.7388
643.1000	77.9063
643.0000	78.0706
642.9000	78.2367
642.8000	78.4008
642.7000	78.5663
642.6000	78.7277
642.5000	78.8906
642.4000	79.0549
642.3000	79.2109
642.2000	79.361
642.1000	79.5112
642.0000	79.6599
641.9000	79.7993
641.8000	79.9343
641.7000	80.0636
641.6000	80.1912
641.5000	80.3139
641.4000	80.4303
641.3000	80.5357
641.2000	80.6389
641.1000	80.7341
641.0000	80.8239
640.9000	80.9082
640.8000	80.9832
640.7000	81.0539
640.6000	81.1221
640.5000	81.1795
640.4000	81.2237
640.3000	81.2641
640.2000	81.3043
640.1000	81.3343
640.0000	81.3563
639.9000	81.3634
639.8000	81.3707
639.7000	81.3728
639.6000	81.3626
639.5000	81.3484
639.4000	81.3249
639.3000	81.2916
639.2000	81.2561
639.1000	81.2091
639.0000	81.1528
638.9000	81.0901
638.8000	81.0243
638.7000	80.9535
638.6000	80.8701
638.5000	80.7831
638.4000	80.6869
638.3000	80.5945
638.2000	80.4935
638.1000	80.3847
638.0000	80.2728
637.9000	80.1547
637.8000	80.031
637.7000	79.905
637.6000	79.7706
637.5000	79.6344
637.4000	79.4943
637.3000	79.353
637.2000	79.2083
637.1000	79.0585
637.0000	78.908
636.9000	78.7557
636.8000	78.5995
636.7000	78.4397
636.6000	78.2779
636.5000	78.1146
636.4000	77.9521
636.3000	77.7885
636.2000	77.6273
636.1000	77.4645
636.0000	77.3025
635.9000	77.1471
635.8000	76.9915
635.7000	76.8407
635.6000	76.6864
635.5000	76.5346
635.4000	76.382
635.3000	76.2384
635.2000	76.1036
635.1000	75.9674
635.0000	75.8327
634.9000	75.7072
634.8000	75.5863
634.7000	75.469
634.6000	75.3552
634.5000	75.2468
634.4000	75.1445
634.3000	75.045
634.2000	74.9513
634.1000	74.8586
634.0000	74.7775
633.9000	74.7028
633.8000	74.6398
633.7000	74.5744
633.6000	74.5122
633.5000	74.4613
633.4000	74.4233
633.3000	74.3872
633.2000	74.3571
633.1000	74.3342
633.0000	74.319
632.9000	74.3107
632.8000	74.3077
632.7000	74.3103
632.6000	74.3256
632.5000	74.3509
632.4000	74.3771
632.3000	74.4154
632.2000	74.4568
632.1000	74.5049
632.0000	74.5618
631.9000	74.6227
631.8000	74.6854
631.7000	74.7558
631.6000	74.8347
631.5000	74.918
631.4000	75.0067
631.3000	75.1023
631.2000	75.205
631.1000	75.311
631.0000	75.4202
630.9000	75.534
630.8000	75.6539
630.7000	75.7761
630.6000	75.9016
630.5000	76.0357
630.4000	76.1726
630.3000	76.31
630.2000	76.4528
630.1000	76.5976
630.0000	76.7414
629.9000	76.8921
629.8000	77.0477
629.7000	77.1977
629.6000	77.3507
629.5000	77.5086
629.4000	77.6656
629.3000	77.8161
629.2000	77.974
629.1000	78.1245
629.0000	78.2757
628.9000	78.4294
628.8000	78.577
628.7000	78.7275
628.6000	78.872
628.5000	79.0155
628.4000	79.1562
628.3000	79.2959
628.2000	79.4251
628.1000	79.5579
628.0000	79.6846
627.9000	79.8003
627.8000	79.9146
627.7000	80.0305
627.6000	80.1309
627.5000	80.231
627.4000	80.3278
627.3000	80.4142
627.2000	80.4965
627.1000	80.5668
627.0000	80.6374
626.9000	80.7009
626.8000	80.7596
626.7000	80.8025
626.6000	80.8389
626.5000	80.8696
626.4000	80.8971
626.3000	80.9171
626.2000	80.9297
626.1000	80.9304
626.0000	80.9331
625.9000	80.9211
625.8000	80.9006
625.7000	80.8731
625.6000	80.838
625.5000	80.7994
625.4000	80.7485
625.3000	80.6911
625.2000	80.6262
625.1000	80.56
625.0000	80.4869
624.9000	80.406
624.8000	80.3124
624.7000	80.2217
624.6000	80.1176
624.5000	80.0145
624.4000	79.898
624.3000	79.7804
624.2000	79.6588
624.1000	79.5304
624.0000	79.4004
623.9000	79.268
623.8000	79.1299
623.7000	78.9868
623.6000	78.8353
623.5000	78.681
623.4000	78.5329
623.3000	78.381
623.2000	78.2294
623.1000	78.0697
623.0000	77.9106
622.9000	77.7473
622.8000	77.5883
622.7000	77.4336
622.6000	77.2781
622.5000	77.1244
622.4000	76.9674
622.3000	76.8111
622.2000	76.6568
622.1000	76.5069
622.0000	76.3673
621.9000	76.2251
621.8000	76.0811
621.7000	75.9416
621.6000	75.8053
621.5000	75.6793
621.4000	75.555
621.3000	75.4376
621.2000	75.3219
621.1000	75.2085
621.0000	75.0984
620.9000	74.9935
620.8000	74.8985
620.7000	74.8099
620.6000	74.729
620.5000	74.6518
620.4000	74.5748
620.3000	74.5098
620.2000	74.4517
620.1000	74.3981
620.0000	74.3503
619.9000	74.31
619.8000	74.2772
619.7000	74.2523
619.6000	74.2342
619.5000	74.2245
619.4000	74.2204
619.3000	74.2278
619.2000	74.2364
619.1000	74.253
619.0000	74.2746
618.9000	74.3081
618.8000	74.3517
618.7000	74.3986
618.6000	74.448
618.5000	74.508
618.4000	74.5729
618.3000	74.6448
618.2000	74.7274
618.1000	74.8088
618.0000	74.8996
617.9000	74.9918
617.8000	75.0919
617.7000	75.1955
617.6000	75.3132
617.5000	75.4286
617.4000	75.5529
617.3000	75.6719
617.2000	75.799
617.1000	75.9296
617.0000	76.0673
616.9000	76.2066
616.8000	76.3514
616.7000	76.4914
616.6000	76.6345
616.5000	76.7835
616.4000	76.9343
616.3000	77.0857
616.2000	77.2379
616.1000	77.3864
616.0000	77.533
615.9000	77.6831
615.8000	77.8292
615.7000	77.9787
615.6000	78.1231
615.5000	78.2671
615.4000	78.4084
615.3000	78.5475
615.2000	78.6822
615.1000	78.8146
615.0000	78.9418
614.9000	79.0624
614.8000	79.1749
614.7000	79.29
614.6000	79.3987
614.5000	79.504
614.4000	79.6011
614.3000	79.6914
614.2000	79.7766
614.1000	79.8564
614.0000	79.9304
613.9000	79.995
613.8000	80.0518
613.7000	80.1031
613.6000	80.1451
613.5000	80.1845
613.4000	80.2146
613.3000	80.2399
613.2000	80.2557
613.1000	80.2625
613.0000	80.259
612.9000	80.2487
612.8000	80.2342
612.7000	80.2097
612.6000	80.1775
612.5000	80.137
612.4000	80.0887
612.3000	80.0326
612.2000	79.9731
612.1000	79.9035
612.0000	79.8294
611.9000	79.7407
611.8000	79.6487
611.7000	79.5463
611.6000	79.4455
611.5000	79.332
611.4000	79.2195
611.3000	79.0992
611.2000	78.9726
611.1000	78.8454
611.0000	78.7128
610.9000	78.5755
610.8000	78.4337
610.7000	78.2881
610.6000	78.1388
610.5000	77.9877
610.4000	77.8352
610.3000	77.6834
610.2000	77.5287
610.1000	77.3757
610.0000	77.2155
609.9000	77.0602
609.8000	76.9038
609.7000	76.7463
609.6000	76.5883
609.5000	76.4307
609.4000	76.2778
609.3000	76.1222
609.2000	75.9713
609.1000	75.8226
609.0000	75.6765
608.9000	75.5321
608.8000	75.3941
608.7000	75.257
608.6000	75.127
608.5000	74.9976
608.4000	74.8763
608.3000	74.7614
608.2000	74.6489
608.1000	74.5444
608.0000	74.4473
607.9000	74.3545
607.8000	74.265
607.7000	74.1902
607.6000	74.1155
607.5000	74.0525
607.4000	73.9913
607.3000	73.9412
607.2000	73.8968
607.1000	73.861
607.0000	73.8296
606.9000	73.808
606.8000	73.7962
606.7000	73.7877
606.6000	73.7887
606.5000	73.7982
606.4000	73.8117
606.3000	73.8319
606.2000	73.8621
606.1000	73.8957
606.0000	73.9407
605.9000	73.9916
605.8000	74.0529
605.7000	74.1181
605.6000	74.1908
605.5000	74.2697
605.4000	74.357
605.3000	74.4491
605.2000	74.5445
605.1000	74.6451
605.0000	74.7526
604.9000	74.8647
604.8000	74.9828
604.7000	75.1082
604.6000	75.2355
604.5000	75.3668
604.4000	75.4988
604.3000	75.6378
604.2000	75.7764
604.1000	75.9179
604.0000	76.0601
603.9000	76.2066
603.8000	76.3489
603.7000	76.4961
603.6000	76.6402
603.5000	76.7886
603.4000	76.9329
603.3000	77.0745
603.2000	77.2162
603.1000	77.3581
603.0000	77.4963
602.9000	77.6346
602.8000	77.7714
602.7000	77.901
602.6000	78.0308
602.5000	78.1505
602.4000	78.274
602.3000	78.3879
602.2000	78.498
602.1000	78.601
602.0000	78.7006
601.9000	78.7949
601.8000	78.8828
601.7000	78.9663
601.6000	79.043
601.5000	79.1113
601.4000	79.1719
601.3000	79.2251
601.2000	79.2761
601.1000	79.3156
601.0000	79.3459
600.9000	79.3721
600.8000	79.3816
600.7000	79.3877
600.6000	79.3897
600.5000	79.385
600.4000	79.3639
600.3000	79.3362
600.2000	79.3025
600.1000	79.2623
600.0000	79.2853
599.9000	79.2244
599.8000	79.1575
599.7000	79.0844
599.6000	79.0012
599.5000	78.9131
599.4000	78.8159
599.3000	78.7105
599.2000	78.6031
599.1000	78.488
599.0000	78.3678
598.9000	78.2411
598.8000	78.1094
598.7000	77.9727
598.6000	77.8275
598.5000	77.6787
598.4000	77.5266
598.3000	77.3794
598.2000	77.2211
598.1000	77.0626
598.0000	76.9033
597.9000	76.744
597.8000	76.583
597.7000	76.4181
597.6000	76.2545
597.5000	76.087
597.4000	75.9207
597.3000	75.7585
597.2000	75.5958
597.1000	75.4372
597.0000	75.2859
596.9000	75.1339
596.8000	74.9841
596.7000	74.8353
596.6000	74.6921
596.5000	74.5512
596.4000	74.4191
596.3000	74.2846
596.2000	74.1617
596.1000	74.0459
596.0000	73.9349
595.9000	73.8312
595.8000	73.7313
595.7000	73.6408
595.6000	73.5548
595.5000	73.4736
595.4000	73.3968
595.3000	73.333
595.2000	73.277
595.1000	73.2291
595.0000	73.1883
594.9000	73.1619
594.8000	73.1365
594.7000	73.1232
594.6000	73.111
594.5000	73.1103
594.4000	73.1175
594.3000	73.1339
594.2000	73.1586
594.1000	73.1869
594.0000	73.2291
593.9000	73.2798
593.8000	73.3361
593.7000	73.399
593.6000	73.4665
593.5000	73.5461
593.4000	73.6343
593.3000	73.718
593.2000	73.815
593.1000	73.921
593.0000	74.0334
592.9000	74.1464
592.8000	74.2672
592.7000	74.3937
592.6000	74.5193
592.5000	74.6581
592.4000	74.7951
592.3000	74.9345
592.2000	75.0763
592.1000	75.2252
592.0000	75.3788
591.9000	75.5296
591.8000	75.6778
591.7000	75.8295
591.6000	75.9802
591.5000	76.129
591.4000	76.2757
591.3000	76.4235
591.2000	76.5693
591.1000	76.7146
591.0000	76.8556
590.9000	76.9919
590.8000	77.1253
590.7000	77.2599
590.6000	77.3895
590.5000	77.5073
590.4000	77.6177
590.3000	77.7202
590.2000	77.8243
590.1000	77.9228
590.0000	78.0134
589.9000	78.0942
589.8000	78.1742
589.7000	78.2472
589.6000	78.3104
589.5000	78.3626
589.4000	78.4137
589.3000	78.4507
589.2000	78.4766
589.1000	78.4963
589.0000	78.5098
588.9000	78.5123
588.8000	78.5111
588.7000	78.4983
588.6000	78.4767
588.5000	78.45
588.4000	78.41
588.3000	78.367
588.2000	78.3121
588.1000	78.2473
588.0000	78.1763
587.9000	78.0965
587.8000	78.0072
587.7000	77.9143
587.6000	77.8161
587.5000	77.7043
587.4000	77.5875
587.3000	77.468
587.2000	77.3442
587.1000	77.2178
587.0000	77.0787
586.9000	76.9331
586.8000	76.7888
586.7000	76.6397
586.6000	76.4839
586.5000	76.326
586.4000	76.1644
586.3000	76.0015
586.2000	75.8369
586.1000	75.6725
586.0000	75.5101
585.9000	75.3437
585.8000	75.1733
585.7000	75.0064
585.6000	74.8355
585.5000	74.6697
585.4000	74.5061
585.3000	74.3443
585.2000	74.1827
585.1000	74.0285
585.0000	73.8785
584.9000	73.7269
584.8000	73.578
584.7000	73.4391
584.6000	73.3053
584.5000	73.1771
584.4000	73.048
584.3000	72.9297
584.2000	72.8247
584.1000	72.7239
584.0000	72.63
583.9000	72.543
583.8000	72.4676
583.7000	72.3914
583.6000	72.3262
583.5000	72.2672
583.4000	72.2106
583.3000	72.1748
583.2000	72.1473
583.1000	72.1223
583.0000	72.1099
582.9000	72.1063
582.8000	72.1143
582.7000	72.1266
582.6000	72.1456
582.5000	72.1763
582.4000	72.2132
582.3000	72.2529
582.2000	72.3072
582.1000	72.37
582.0000	72.4431
581.9000	72.522
581.8000	72.6169
581.7000	72.7101
581.6000	72.8128
581.5000	72.9211
581.4000	73.0373
581.3000	73.1516
581.2000	73.2745
581.1000	73.4048
581.0000	73.5404
580.9000	73.6739
580.8000	73.8143
580.7000	73.9633
580.6000	74.1066
580.5000	74.2647
580.4000	74.4142
580.3000	74.5663
580.2000	74.7201
580.1000	74.874
580.0000	75.027
579.9000	75.1809
579.8000	75.3265
579.7000	75.4798
579.6000	75.6289
579.5000	75.7776
579.4000	75.9141
579.3000	76.0574
579.2000	76.1949
579.1000	76.3266
579.0000	76.4521
578.9000	76.566
578.8000	76.6817
578.7000	76.7884
578.6000	76.8846
578.5000	76.9758
578.4000	77.0629
578.3000	77.1428
578.2000	77.2138
578.1000	77.273
578.0000	77.3266
577.9000	77.3703
577.8000	77.4147
577.7000	77.4367
577.6000	77.4542
577.5000	77.4622
577.4000	77.4635
577.3000	77.4552
577.2000	77.4422
577.1000	77.4135
577.0000	77.3815
576.9000	77.3365
576.8000	77.2798
576.7000	77.2139
576.6000	77.1489
576.5000	77.0719
576.4000	76.9819
576.3000	76.8889
576.2000	76.7845
576.1000	76.6778
576.0000	76.5626
575.9000	76.4379
575.8000	76.31
575.7000	76.1804
575.6000	76.0368
575.5000	75.8915
575.4000	75.739
575.3000	75.5874
575.2000	75.4307
575.1000	75.2717
575.0000	75.104
574.9000	74.9349
574.8000	74.7697
574.7000	74.5993
574.6000	74.4247
574.5000	74.2534
574.4000	74.0802
574.3000	73.9091
574.2000	73.7358
574.1000	73.5616
574.0000	73.3942
573.9000	73.2323
573.8000	73.0739
573.7000	72.917
573.6000	72.7614
573.5000	72.6108
573.4000	72.4669
573.3000	72.3294
573.2000	72.1933
573.1000	72.0636
573.0000	71.9455
572.9000	71.8328
572.8000	71.7266
572.7000	71.6263
572.6000	71.5367
572.5000	71.4558
572.4000	71.382
572.3000	71.3152
572.2000	71.2574
572.1000	71.2089
572.0000	71.174
571.9000	71.1453
571.8000	71.127
571.7000	71.1174
571.6000	71.118
571.5000	71.1289
571.4000	71.1488
571.3000	71.1784
571.2000	71.2171
571.1000	71.268
571.0000	71.3243
570.9000	71.3868
570.8000	71.4602
570.7000	71.5439
570.6000	71.6329
570.5000	71.732
570.4000	71.8354
570.3000	71.9477
570.2000	72.0637
570.1000	72.1891
570.0000	72.3194
569.9000	72.4544
569.8000	72.5933
569.7000	72.734
569.6000	72.88
569.5000	73.0307
569.4000	73.1872
569.3000	73.3437
569.2000	73.4973
569.1000	73.652
569.0000	73.8094
568.9000	73.9622
568.8000	74.1192
568.7000	74.2744
568.6000	74.4263
568.5000	74.5757
568.4000	74.7222
568.3000	74.8643
568.2000	75.0047
568.1000	75.1396
568.0000	75.2699
567.9000	75.394
567.8000	75.5079
567.7000	75.6209
567.6000	75.7308
567.5000	75.8305
567.4000	75.9217
567.3000	76.0079
567.2000	76.0822
567.1000	76.1473
567.0000	76.2046
566.9000	76.2509
566.8000	76.2919
566.7000	76.3199
566.6000	76.3361
566.5000	76.3433
566.4000	76.34
566.3000	76.3313
566.2000	76.3132
566.1000	76.2853
566.0000	76.2434
565.9000	76.1941
565.8000	76.1356
565.7000	76.0677
565.6000	75.9901
565.5000	75.9072
565.4000	75.8122
565.3000	75.7103
565.2000	75.5987
565.1000	75.4834
565.0000	75.3641
564.9000	75.2351
564.8000	75.0999
564.7000	74.9555
564.6000	74.8084
564.5000	74.6536
564.4000	74.4953
564.3000	74.3297
564.2000	74.1638
564.1000	73.9933
564.0000	73.8232
563.9000	73.6477
563.8000	73.4741
563.7000	73.2978
563.6000	73.1219
563.5000	72.9436
563.4000	72.7634
563.3000	72.5921
563.2000	72.4224
563.1000	72.2536
563.0000	72.0833
562.9000	71.9175
562.8000	71.7598
562.7000	71.6062
562.6000	71.4569
562.5000	71.3145
562.4000	71.1767
562.3000	71.0479
562.2000	70.9233
562.1000	70.8111
562.0000	70.7033
561.9000	70.6032
561.8000	70.5152
561.7000	70.4335
561.6000	70.3602
561.5000	70.2986
561.4000	70.2471
561.3000	70.2071
561.2000	70.1747
561.1000	70.1507
561.0000	70.136
560.9000	70.132
560.8000	70.1395
560.7000	70.1551
560.6000	70.1835
560.5000	70.2165
560.4000	70.263
560.3000	70.3218
560.2000	70.386
560.1000	70.4597
560.0000	70.5414
559.9000	70.6305
559.8000	70.7277
559.7000	70.8341
559.6000	70.9476
559.5000	71.0703
559.4000	71.2006
559.3000	71.3368
559.2000	71.4733
559.1000	71.6192
559.0000	71.7677
558.9000	71.9216
558.8000	72.076
558.7000	72.236
558.6000	72.3973
558.5000	72.5575
558.4000	72.7189
558.3000	72.8803
558.2000	73.0462
558.1000	73.2063
558.0000	73.3634
557.9000	73.5191
557.8000	73.675
557.7000	73.822
557.6000	73.9694
557.5000	74.1092
557.4000	74.2443
557.3000	74.3742
557.2000	74.5001
557.1000	74.6115
557.0000	74.72
556.9000	74.8212
556.8000	74.916
556.7000	75.0013
556.6000	75.075
556.5000	75.1413
556.4000	75.1995
556.3000	75.246
556.2000	75.2766
556.1000	75.3039
556.0000	75.3196
555.9000	75.3244
555.8000	75.3185
555.7000	75.3009
555.6000	75.2725
555.5000	75.238
555.4000	75.1891
555.3000	75.1339
555.2000	75.0658
555.1000	74.9887
555.0000	74.9004
554.9000	74.8035
554.8000	74.6975
554.7000	74.5833
554.6000	74.4634
554.5000	74.3309
554.4000	74.1946
554.3000	74.0485
554.2000	73.899
554.1000	73.7467
554.0000	73.5841
553.9000	73.4215
553.8000	73.2547
553.7000	73.0797
553.6000	72.9059
553.5000	72.7281
553.4000	72.55
553.3000	72.3689
553.2000	72.1881
553.1000	72.0121
553.0000	71.8343
552.9000	71.6615
552.8000	71.4857
552.7000	71.3134
552.6000	71.148
552.5000	70.9807
552.4000	70.8247
552.3000	70.6697
552.2000	70.5178
552.1000	70.3789
552.0000	70.241
551.9000	70.1138
551.8000	69.9959
551.7000	69.8849
551.6000	69.7866
551.5000	69.6938
551.4000	69.613
551.3000	69.542
551.2000	69.4793
551.1000	69.4327
551.0000	69.3931
550.9000	69.3689
550.8000	69.3485
550.7000	69.34
550.6000	69.3452
550.5000	69.3507
550.4000	69.3783
550.3000	69.4154
550.2000	69.4599
550.1000	69.5185
550.0000	69.5849
549.9000	69.6607
549.8000	69.7462
549.7000	69.8387
549.6000	69.9449
549.5000	70.056
549.4000	70.1723
549.3000	70.2959
549.2000	70.429
549.1000	70.5688
549.0000	70.7119
548.9000	70.8697
548.8000	71.0293
548.7000	71.1853
548.6000	71.3473
548.5000	71.5127
548.4000	71.6735
548.3000	71.843
548.2000	72.0089
548.1000	72.1748
548.0000	72.3366
547.9000	72.4991
547.8000	72.6624
547.7000	72.8162
547.6000	72.9674
547.5000	73.116
547.4000	73.2602
547.3000	73.397
547.2000	73.5199
547.1000	73.6397
547.0000	73.7542
546.9000	73.8623
546.8000	73.9603
546.7000	74.0478
546.6000	74.1291
546.5000	74.2023
546.4000	74.2663
546.3000	74.3164
546.2000	74.3548
546.1000	74.3874
546.0000	74.4095
545.9000	74.4169
545.8000	74.4155
545.7000	74.4005
545.6000	74.3811
545.5000	74.3491
545.4000	74.3057
545.3000	74.2467
545.2000	74.1843
545.1000	74.1087
545.0000	74.0231
544.9000	73.926
544.8000	73.8213
544.7000	73.709
544.6000	73.5916
544.5000	73.4625
544.4000	73.3292
544.3000	73.1913
544.2000	73.0451
544.1000	72.892
544.0000	72.7287
543.9000	72.5659
543.8000	72.3986
543.7000	72.2323
543.6000	72.0605
543.5000	71.8842
543.4000	71.7094
543.3000	71.5324
543.2000	71.3589
543.1000	71.1868
543.0000	71.0101
542.9000	70.844
542.8000	70.6745
542.7000	70.5095
542.6000	70.3479
542.5000	70.192
542.4000	70.0447
542.3000	69.9034
542.2000	69.7695
542.1000	69.6396
542.0000	69.5202
541.9000	69.412
541.8000	69.3068
541.7000	69.2132
541.6000	69.1278
541.5000	69.0507
541.4000	68.9867
541.3000	68.9284
541.2000	68.8828
541.1000	68.848
541.0000	68.8237
540.9000	68.8136
540.8000	68.8149
540.7000	68.8299
540.6000	68.8523
540.5000	68.8847
540.4000	68.9305
540.3000	68.98
540.2000	69.0447
540.1000	69.1195
540.0000	69.2026
539.9000	69.2948
539.8000	69.3968
539.7000	69.509
539.6000	69.6285
539.5000	69.7574
539.4000	69.8937
539.3000	70.0321
539.2000	70.1758
539.1000	70.3248
539.0000	70.4729
538.9000	70.6287
538.8000	70.785
538.7000	70.9491
538.6000	71.1085
538.5000	71.2726
538.4000	71.4389
538.3000	71.6042
538.2000	71.7651
538.1000	71.9214
538.0000	72.0808
537.9000	72.2321
537.8000	72.3807
537.7000	72.5266
537.6000	72.6675
537.5000	72.7959
537.4000	72.9244
537.3000	73.0423
537.2000	73.1532
537.1000	73.2585
537.0000	73.3563
536.9000	73.4431
536.8000	73.515
536.7000	73.5782
536.6000	73.6299
536.5000	73.6766
536.4000	73.7104
536.3000	73.7314
536.2000	73.7431
536.1000	73.7432
536.0000	73.7309
535.9000	73.708
535.8000	73.676
535.7000	73.6341
535.6000	73.5824
535.5000	73.519
535.4000	73.4451
535.3000	73.3614
535.2000	73.2711
535.1000	73.1699
535.0000	73.0662
534.9000	72.9483
534.8000	72.8222
534.7000	72.6943
534.6000	72.558
534.5000	72.4136
534.4000	72.2639
534.3000	72.114
534.2000	71.957
534.1000	71.7988
534.0000	71.6323
533.9000	71.464
533.8000	71.2963
533.7000	71.1298
533.6000	70.9615
533.5000	70.7991
533.4000	70.6369
533.3000	70.4735
533.2000	70.3139
533.1000	70.1588
533.0000	70.004
532.9000	69.862
532.8000	69.7246
532.7000	69.5924
532.6000	69.4704
532.5000	69.3497
532.4000	69.2428
532.3000	69.1422
532.2000	69.0528
532.1000	68.9691
532.0000	68.8972
531.9000	68.8303
531.8000	68.7732
531.7000	68.7352
531.6000	68.7067
531.5000	68.686
531.4000	68.6783
531.3000	68.6792
531.2000	68.6928
531.1000	68.7155
531.0000	68.7486
530.9000	68.7973
530.8000	68.8534
530.7000	68.9188
530.6000	68.9972
530.5000	69.0852
530.4000	69.1815
530.3000	69.2901
530.2000	69.4033
530.1000	69.5216
530.0000	69.6487
529.9000	69.7843
529.8000	69.9288
529.7000	70.0728
529.6000	70.2218
529.5000	70.3723
529.4000	70.5311
529.3000	70.6891
529.2000	70.8497
529.1000	71.0107
529.0000	71.1681
528.9000	71.328
528.8000	71.4861
528.7000	71.6416
528.6000	71.795
528.5000	71.9452
528.4000	72.0928
528.3000	72.2301
528.2000	72.3629
528.1000	72.4907
528.0000	72.6153
527.9000	72.7329
527.8000	72.8334
527.7000	72.9303
527.6000	73.0144
527.5000	73.0975
527.4000	73.1666
527.3000	73.2225
527.2000	73.2732
527.1000	73.3085
527.0000	73.3359
526.9000	73.3532
526.8000	73.3523
526.7000	73.3485
526.6000	73.3317
526.5000	73.3061
526.4000	73.2652
526.3000	73.2201
526.2000	73.1653
526.1000	73.0991
526.0000	73.0266
525.9000	72.9381
525.8000	72.847
525.7000	72.7481
525.6000	72.6366
525.5000	72.5223
525.4000	72.4015
525.3000	72.2714
525.2000	72.1375
525.1000	71.9976
525.0000	71.8529
524.9000	71.7093
524.8000	71.5613
524.7000	71.4031
524.6000	71.2485
524.5000	71.0937
524.4000	70.9334
524.3000	70.7825
524.2000	70.6272
524.1000	70.4719
524.0000	70.3236
523.9000	70.1781
523.8000	70.0339
523.7000	69.9012
523.6000	69.7769
523.5000	69.6535
523.4000	69.5399
523.3000	69.4279
523.2000	69.3238
523.1000	69.2355
523.0000	69.1519
522.9000	69.0755
522.8000	69.0151
522.7000	68.9601
522.6000	68.9175
522.5000	68.8882
522.4000	68.8665
522.3000	68.8575
522.2000	68.865
522.1000	68.8756
522.0000	68.8953
521.9000	68.93
521.8000	68.9719
521.7000	69.0264
521.6000	69.0903
521.5000	69.1671
521.4000	69.2567
521.3000	69.3528
521.2000	69.458
521.1000	69.5674
521.0000	69.689
520.9000	69.8158
520.8000	69.95
520.7000	70.0883
520.6000	70.2283
520.5000	70.3753
520.4000	70.5275
520.3000	70.6779
520.2000	70.8362
520.1000	70.9941
520.0000	71.2031
519.9000	71.3615
519.8000	71.5148
519.7000	71.6676
519.6000	71.8183
519.5000	71.9648
519.4000	72.1056
519.3000	72.2387
519.2000	72.3699
519.1000	72.4922
519.0000	72.6074
518.9000	72.7162
518.8000	72.8133
518.7000	72.9043
518.6000	72.9871
518.5000	73.0622
518.4000	73.1224
518.3000	73.1719
518.2000	73.2231
518.1000	73.2583
518.0000	73.2844
517.9000	73.2939
517.8000	73.2978
517.7000	73.2901
517.6000	73.2647
517.5000	73.2356
517.4000	73.1964
517.3000	73.1469
517.2000	73.0922
517.1000	73.0201
517.0000	72.9469
516.9000	72.8618
516.8000	72.7723
516.7000	72.6725
516.6000	72.5563
516.5000	72.4407
516.4000	72.3191
516.3000	72.1965
516.2000	72.0641
516.1000	71.9299
516.0000	71.7943
515.9000	71.6585
515.8000	71.5219
515.7000	71.3794
515.6000	71.238
515.5000	71.1007
515.4000	70.9605
515.3000	70.8232
515.2000	70.6884
515.1000	70.5608
515.0000	70.4366
514.9000	70.3138
514.8000	70.1984
514.7000	70.0864
514.6000	69.9857
514.5000	69.8921
514.4000	69.8086
514.3000	69.7297
514.2000	69.6605
514.1000	69.6044
514.0000	69.553
513.9000	69.5115
513.8000	69.4838
513.7000	69.4631
513.6000	69.4523
513.5000	69.4545
513.4000	69.472
513.3000	69.496
513.2000	69.5302
513.1000	69.5789
513.0000	69.6314
512.9000	69.6931
512.8000	69.7651
512.7000	69.8489
512.6000	69.9375
512.5000	70.0373
512.4000	70.1493
512.3000	70.2664
512.2000	70.3831
512.1000	70.5089
512.0000	70.6449
511.9000	70.7803
511.8000	70.9201
511.7000	71.0627
511.6000	71.2117
511.5000	71.3565
511.4000	71.5047
511.3000	71.6542
511.2000	71.8036
511.1000	71.9489
511.0000	72.0934
510.9000	72.2311
510.8000	72.3637
510.7000	72.4911
510.6000	72.6201
510.5000	72.7438
510.4000	72.8527
510.3000	72.956
510.2000	73.0524
510.1000	73.146
510.0000	73.2247
509.9000	73.2953
509.8000	73.3589
509.7000	73.4128
509.6000	73.4578
509.5000	73.4896
509.4000	73.5099
509.3000	73.5214
509.2000	73.5256
509.1000	73.5192
509.0000	73.4983
508.9000	73.4692
508.8000	73.4355
508.7000	73.3902
508.6000	73.3349
508.5000	73.2673
508.4000	73.1963
508.3000	73.1175
508.2000	73.0301
508.1000	72.9368
508.0000	72.8297
507.9000	72.7233
507.8000	72.6149
507.7000	72.5036
507.6000	72.3815
507.5000	72.2616
507.4000	72.1403
507.3000	72.0175
507.2000	71.8952
507.1000	71.7724
507.0000	71.6493
506.9000	71.5318
506.8000	71.4109
506.7000	71.2957
506.6000	71.1871
506.5000	71.0765
506.4000	70.9785
506.3000	70.8861
506.2000	70.7995
506.1000	70.7149
506.0000	70.6441
505.9000	70.5838
505.8000	70.5324
505.7000	70.4865
505.6000	70.4471
505.5000	70.4201
505.4000	70.4022
505.3000	70.3944
505.2000	70.3973
505.1000	70.4127
505.0000	70.437
504.9000	70.474
504.8000	70.5191
504.7000	70.5737
504.6000	70.6358
504.5000	70.7126
504.4000	70.7942
504.3000	70.8829
504.2000	70.9764
504.1000	71.0783
504.0000	71.1892
503.9000	71.3045
503.8000	71.4286
503.7000	71.5531
503.6000	71.6847
503.5000	71.8172
503.4000	71.9478
503.3000	72.0853
503.2000	72.2212
503.1000	72.358
503.0000	72.4988
502.9000	72.6291
502.8000	72.7612
502.7000	72.8861
502.6000	73.0141
502.5000	73.1393
502.4000	73.2564
502.3000	73.3671
502.2000	73.4693
502.1000	73.5659
502.0000	73.6547
501.9000	73.7329
501.8000	73.8075
501.7000	73.8728
501.6000	73.931
501.5000	73.9796
501.4000	74.0118
501.3000	74.0402
501.2000	74.0588
501.1000	74.0665
501.0000	74.0627
500.9000	74.0482
500.8000	74.0254
500.7000	73.9949
500.6000	73.959
500.5000	73.9109
500.4000	73.8565
500.3000	73.7976
500.2000	73.7303
500.1000	73.6526
500.0000	73.5702
499.9000	73.4791
499.8000	73.3895
499.7000	73.2953
499.6000	73.1942
499.5000	73.0929
499.4000	72.9914
499.3000	72.8881
499.2000	72.7812
499.1000	72.6781
499.0000	72.5744
498.9000	72.4755
498.8000	72.3779
498.7000	72.2797
498.6000	72.1872
498.5000	72.1004
498.4000	72.0149
498.3000	71.9359
498.2000	71.8606
498.1000	71.7972
498.0000	71.7411
497.9000	71.6913
497.8000	71.6483
497.7000	71.6148
497.6000	71.5926
497.5000	71.5747
497.4000	71.5615
497.3000	71.5621
497.2000	71.5694
497.1000	71.5891
497.0000	71.6139
496.9000	71.6498
496.8000	71.6965
496.7000	71.7508
496.6000	71.8131
496.5000	71.8788
496.4000	71.9503
496.3000	72.0348
496.2000	72.1231
496.1000	72.2176
496.0000	72.3173
495.9000	72.4236
495.8000	72.5378
495.7000	72.6516
495.6000	72.7698
495.5000	72.8874
495.4000	73.0098
495.3000	73.129
495.2000	73.25
495.1000	73.3649
495.0000	73.485
494.9000	73.6016
494.8000	73.7181
494.7000	73.826
494.6000	73.9312
494.5000	74.0327
494.4000	74.1294
494.3000	74.2157
494.2000	74.2987
494.1000	74.376
494.0000	74.4427
493.9000	74.502
493.8000	74.5572
493.7000	74.6024
493.6000	74.6398
493.5000	74.6755
493.4000	74.6924
493.3000	74.7065
493.2000	74.7083
493.1000	74.7065
493.0000	74.6914
492.9000	74.6688
492.8000	74.6356
492.7000	74.6037
492.6000	74.5592
492.5000	74.5055
492.4000	74.4476
492.3000	74.3891
492.2000	74.3205
492.1000	74.2503
492.0000	74.1725
491.9000	74.0927
491.8000	74.0151
491.7000	73.9326
491.6000	73.846
491.5000	73.7598
491.4000	73.6766
491.3000	73.5894
491.2000	73.5123
491.1000	73.4274
491.0000	73.3489
490.9000	73.2746
490.8000	73.2045
490.7000	73.1379
490.6000	73.0776
490.5000	73.0166
490.4000	72.9675
490.3000	72.9218
490.2000	72.8792
490.1000	72.8471
490.0000	72.8284
489.9000	72.8122
489.8000	72.8035
489.7000	72.8073
489.6000	72.8136
489.5000	72.8278
489.4000	72.8485
489.3000	72.8816
489.2000	72.9198
489.1000	72.9619
489.0000	73.0109
488.9000	73.0718
488.8000	73.1372
488.7000	73.2108
488.6000	73.2912
488.5000	73.3717
488.4000	73.4552
488.3000	73.5472
488.2000	73.6426
488.1000	73.7351
488.0000	73.8302
487.9000	73.9329
487.8000	74.034
487.7000	74.1307
487.6000	74.23
487.5000	74.3304
487.4000	74.4251
487.3000	74.518
487.2000	74.606
487.1000	74.6906
487.0000	74.7724
486.9000	74.852
486.8000	74.9243
486.7000	74.9922
486.6000	75.0503
486.5000	75.1086
486.4000	75.1596
486.3000	75.2002
486.2000	75.2402
486.1000	75.2707
486.0000	75.2936
485.9000	75.3069
485.8000	75.3161
485.7000	75.3196
485.6000	75.3148
485.5000	75.3
485.4000	75.2791
485.3000	75.2528
485.2000	75.2257
485.1000	75.187
485.0000	75.147
484.9000	75.0973
484.8000	75.0425
484.7000	74.9896
484.6000	74.9265
484.5000	74.8668
484.4000	74.8003
484.3000	74.7345
484.2000	74.6689
484.1000	74.6007
484.0000	74.5343
483.9000	74.4721
483.8000	74.4091
483.7000	74.3421
483.6000	74.2819
483.5000	74.2252
483.4000	74.1688
483.3000	74.1197
483.2000	74.0761
483.1000	74.0354
483.0000	73.9986
482.9000	73.9663
482.8000	73.9456
482.7000	73.9258
482.6000	73.9099
482.5000	73.9027
482.4000	73.8977
482.3000	73.9025
482.2000	73.9106
482.1000	73.9305
482.0000	73.954
481.9000	73.9818
481.8000	74.0202
481.7000	74.0598
481.6000	74.1037
481.5000	74.1529
481.4000	74.2091
481.3000	74.2658
481.2000	74.3281
481.1000	74.3991
481.0000	74.471
480.9000	74.5456
480.8000	74.6259
480.7000	74.6996
480.6000	74.7813
480.5000	74.8619
480.4000	74.937
480.3000	75.0174
480.2000	75.0876
480.1000	75.16
480.0000	75.2345
479.9000	75.3013
479.8000	75.3661
479.7000	75.4333
479.6000	75.4878
479.5000	75.5425
479.4000	75.5908
479.3000	75.6339
479.2000	75.6684
479.1000	75.7039
479.0000	75.7304
478.9000	75.7518
478.8000	75.7678
478.7000	75.7746
478.6000	75.7812
478.5000	75.7862
478.4000	75.7804
478.3000	75.7726
478.2000	75.7581
478.1000	75.7336
478.0000	75.7108
477.9000	75.6791
477.8000	75.6463
477.7000	75.6127
477.6000	75.5789
477.5000	75.5342
477.4000	75.4899
477.3000	75.443
477.2000	75.3955
477.1000	75.3456
477.0000	75.2945
476.9000	75.2427
476.8000	75.1927
476.7000	75.1432
476.6000	75.0949
476.5000	75.0503
476.4000	75.0081
476.3000	74.9626
476.2000	74.9246
476.1000	74.8864
476.0000	74.853
475.9000	74.8263
475.8000	74.8037
475.7000	74.7787
475.6000	74.7599
475.5000	74.7484
475.4000	74.7451
475.3000	74.7464
475.2000	74.7506
475.1000	74.76
475.0000	74.7764
474.9000	74.7943
474.8000	74.8159
474.7000	74.8476
474.6000	74.8756
474.5000	74.9091
474.4000	74.9495
474.3000	74.9895
474.2000	75.0339
474.1000	75.0922
474.0000	75.149
473.9000	75.2045
473.8000	75.2587
473.7000	75.3144
473.6000	75.3688
473.5000	75.4224
473.4000	75.4807
473.3000	75.5393
473.2000	75.5877
473.1000	75.642
473.0000	75.6971
472.9000	75.7463
472.8000	75.7966
472.7000	75.8409
472.6000	75.8812
472.5000	75.9107
472.4000	75.9432
472.3000	75.9674
472.2000	75.9907
472.1000	76.0033
472.0000	76.0184
471.9000	76.0273
471.8000	76.0282
471.7000	76.0249
471.6000	76.0242
471.5000	76.0128
471.4000	75.9971
471.3000	75.9815
471.2000	75.9526
471.1000	75.9281
471.0000	75.899
470.9000	75.8678
470.8000	75.8351
470.7000	75.8039
470.6000	75.7678
470.5000	75.7327
470.4000	75.6949
470.3000	75.6591
470.2000	75.6173
470.1000	75.5778
470.0000	75.542
469.9000	75.5042
469.8000	75.471
469.7000	75.4391
469.6000	75.4097
469.5000	75.3824
469.4000	75.3586
469.3000	75.3356
469.2000	75.3112
469.1000	75.2921
469.0000	75.28
468.9000	75.2696
468.8000	75.2613
468.7000	75.2543
468.6000	75.2573
468.5000	75.2621
468.4000	75.2676
468.3000	75.2819
468.2000	75.2917
468.1000	75.3071
468.0000	75.3238
467.9000	75.3438
467.8000	75.3657
467.7000	75.3948
467.6000	75.4268
467.5000	75.4579
467.4000	75.4859
467.3000	75.5192
467.2000	75.5525
467.1000	75.5901
467.0000	75.6258
466.9000	75.6571
466.8000	75.6935
466.7000	75.7221
466.6000	75.7571
466.5000	75.7819
466.4000	75.8152
466.3000	75.8448
466.2000	75.87
466.1000	75.8876
466.0000	75.9036
465.9000	75.9168
465.8000	75.9331
465.7000	75.9416
465.6000	75.9527
465.5000	75.9539
465.4000	75.9547
465.3000	75.9524
465.2000	75.9438
465.1000	75.9351
465.0000	75.9263
464.9000	75.9191
464.8000	75.9027
464.7000	75.8793
464.6000	75.8567
464.5000	75.8342
464.4000	75.8094
464.3000	75.783
464.2000	75.7527
464.1000	75.7224
464.0000	75.6887
463.9000	75.6573
463.8000	75.6281
463.7000	75.5987
463.6000	75.5707
463.5000	75.5427
463.4000	75.5132
463.3000	75.4834
463.2000	75.4518
463.1000	75.4321
463.0000	75.4099
462.9000	75.392
462.8000	75.3725
462.7000	75.3597
462.6000	75.3444
462.5000	75.3394
462.4000	75.3301
462.3000	75.3253
462.2000	75.3227
462.1000	75.3217
462.0000	75.3288
461.9000	75.3287
461.8000	75.3318
461.7000	75.3399
461.6000	75.3524
461.5000	75.3617
461.4000	75.3729
461.3000	75.3881
461.2000	75.4073
461.1000	75.4221
461.0000	75.4439
460.9000	75.4567
460.8000	75.4746
460.7000	75.4904
460.6000	75.5023
460.5000	75.5185
460.4000	75.5272
460.3000	75.5428
460.2000	75.5579
460.1000	75.5676
460.0000	75.5768
459.9000	75.5822
459.8000	75.5929
459.7000	75.5956
459.6000	75.5943
459.5000	75.5947
459.4000	75.5913
459.3000	75.5927
459.2000	75.5868
459.1000	75.5824
459.0000	75.575
458.9000	75.563
458.8000	75.5509
458.7000	75.5375
458.6000	75.5213
458.5000	75.5029
458.4000	75.4845
458.3000	75.4678
458.2000	75.4445
458.1000	75.4231
458.0000	75.403
457.9000	75.3818
457.8000	75.3595
457.7000	75.3334
457.6000	75.3109
457.5000	75.2872
457.4000	75.2622
457.3000	75.2437
457.2000	75.2243
457.1000	75.2083
457.0000	75.1902
456.9000	75.1749
456.8000	75.1581
456.7000	75.1428
456.6000	75.1318
456.5000	75.1219
456.4000	75.1099
456.3000	75.1014
456.2000	75.0971
456.1000	75.0899
456.0000	75.0859
455.9000	75.0821
455.8000	75.0824
455.7000	75.0771
455.6000	75.0732
455.5000	75.0757
455.4000	75.0732
455.3000	75.0751
455.2000	75.0788
455.1000	75.0803
455.0000	75.0813
454.9000	75.082
454.8000	75.0843
454.7000	75.0824
454.6000	75.0783
454.5000	75.0813
454.4000	75.0818
454.3000	75.0819
454.2000	75.0769
454.1000	75.0754
454.0000	75.07
453.9000	75.0597
453.8000	75.0554
453.7000	75.045
453.6000	75.0331
453.5000	75.0256
453.4000	75.012
453.3000	74.9991
453.2000	74.9843
453.1000	74.9709
453.0000	74.9541
452.9000	74.9346
452.8000	74.9178
452.7000	74.8996
452.6000	74.8779
452.5000	74.8581
452.4000	74.8392
452.3000	74.8158
452.2000	74.7949
452.1000	74.7752
452.0000	74.7552
451.9000	74.7308
451.8000	74.7124
451.7000	74.6916
451.6000	74.6731
451.5000	74.6563
451.4000	74.6347
451.3000	74.6184
451.2000	74.6006
451.1000	74.5841
451.0000	74.5747
450.9000	74.5641
450.8000	74.5509
450.7000	74.5417
450.6000	74.5322
450.5000	74.5249
450.4000	74.5205
450.3000	74.5159
450.2000	74.51
450.1000	74.506
450.0000	74.5041
449.9000	74.4997
449.8000	74.5029
449.7000	74.4958
449.6000	74.4946
449.5000	74.4913
449.4000	74.4881
449.3000	74.4829
449.2000	74.481
449.1000	74.4774
449.0000	74.4712
448.9000	74.4616
448.8000	74.4521
448.7000	74.4396
448.6000	74.4267
448.5000	74.4142
448.4000	74.3987
448.3000	74.3861
448.2000	74.3656
448.1000	74.3453
448.0000	74.3224
447.9000	74.298
447.8000	74.2743
447.7000	74.2506
447.6000	74.2223
447.5000	74.1946
447.4000	74.1668
447.3000	74.1369
447.2000	74.1016
447.1000	74.0728
447.0000	74.0478
446.9000	74.0159
446.8000	73.986
446.7000	73.9527
446.6000	73.926
446.5000	73.9014
446.4000	73.8728
446.3000	73.8484
446.2000	73.8204
446.1000	73.7982
446.0000	73.7795
445.9000	73.7578
445.8000	73.7343
445.7000	73.7165
445.6000	73.7014
445.5000	73.6843
445.4000	73.6671
445.3000	73.656
445.2000	73.6475
445.1000	73.6383
445.0000	73.6281
444.9000	73.6177
444.8000	73.6144
444.7000	73.6118
444.6000	73.6102
444.5000	73.606
444.4000	73.5957
444.3000	73.5894
444.2000	73.5889
444.1000	73.5866
444.0000	73.5868
443.9000	73.587
443.8000	73.5834
443.7000	73.5761
443.6000	73.5647
443.5000	73.5558
443.4000	73.5441
443.3000	73.5343
443.2000	73.5145
443.1000	73.4939
443.0000	73.4705
442.9000	73.4459
442.8000	73.4251
442.7000	73.4012
442.6000	73.3741
442.5000	73.3441
442.4000	73.308
442.3000	73.2701
442.2000	73.2294
442.1000	73.1918
442.0000	73.155
441.9000	73.1123
441.8000	73.0708
441.7000	73.0301
441.6000	72.9905
441.5000	72.951
441.4000	72.92
441.3000	72.88
441.2000	72.8371
441.1000	72.8012
441.0000	72.7655
440.9000	72.7316
440.8000	72.6999
440.7000	72.6702
440.6000	72.6439
440.5000	72.6191
440.4000	72.5964
440.3000	72.5773
440.2000	72.5627
440.1000	72.5486
440.0000	72.532
439.9000	72.5177
439.8000	72.5017
439.7000	72.4941
439.6000	72.4921
439.5000	72.4859
439.4000	72.4808
439.3000	72.4779
439.2000	72.4791
439.1000	72.476
439.0000	72.4744
438.9000	72.4719
438.8000	72.4698
438.7000	72.4653
438.6000	72.4626
438.5000	72.4571
438.4000	72.4509
438.3000	72.445
438.2000	72.4342
438.1000	72.4255
438.0000	72.4075
437.9000	72.3942
437.8000	72.3725
437.7000	72.3507
437.6000	72.3259
437.5000	72.2993
437.4000	72.2692
437.3000	72.2349
437.2000	72.1954
437.1000	72.1601
437.0000	72.116
436.9000	72.0731
436.8000	72.0294
436.7000	71.9849
436.6000	71.938
436.5000	71.8869
436.4000	71.8417
436.3000	71.7883
436.2000	71.7437
436.1000	71.6959
436.0000	71.6429
435.9000	71.5973
435.8000	71.5549
435.7000	71.5153
435.6000	71.4767
435.5000	71.4348
435.4000	71.4011
435.3000	71.3677
435.2000	71.3431
435.1000	71.3165
435.0000	71.2898
434.9000	71.2705
434.8000	71.2529
434.7000	71.244
434.6000	71.2299
434.5000	71.2231
434.4000	71.2252
434.3000	71.2275
434.2000	71.2222
434.1000	71.2203
434.0000	71.2251
433.9000	71.2352
433.8000	71.2408
433.7000	71.242
433.6000	71.2436
433.5000	71.2434
433.4000	71.2521
433.3000	71.2495
433.2000	71.2527
433.1000	71.2455
433.0000	71.2425
432.9000	71.2318
432.8000	71.2131
432.7000	71.1931
432.6000	71.1742
432.5000	71.1529
432.4000	71.1252
432.3000	71.0888
432.2000	71.0505
432.1000	71.0133
432.0000	70.973
431.9000	70.9307
431.8000	70.8808
431.7000	70.8294
431.6000	70.7699
431.5000	70.7136
431.4000	70.6546
431.3000	70.5979
431.2000	70.5414
431.1000	70.4821
431.0000	70.424
430.9000	70.363
430.8000	70.3067
430.7000	70.2514
430.6000	70.2039
430.5000	70.159
430.4000	70.1132
430.3000	70.0682
430.2000	70.0266
430.1000	69.9947
430.0000	69.966
429.9000	69.9423
429.8000	69.9227
429.7000	69.9064
429.6000	69.8911
429.5000	69.881
429.4000	69.8689
429.3000	69.8626
429.2000	69.8572
429.1000	69.857
429.0000	69.8529
428.9000	69.8507
428.8000	69.8552
428.7000	69.86
428.6000	69.8668
428.5000	69.869
428.4000	69.8704
428.3000	69.8714
428.2000	69.8696
428.1000	69.8662
428.0000	69.8624
427.9000	69.8563
427.8000	69.8525
427.7000	69.8428
427.6000	69.8268
427.5000	69.8058
427.4000	69.7843
427.3000	69.7589
427.2000	69.7246
427.1000	69.6898
427.0000	69.652
426.9000	69.61
426.8000	69.5697
426.7000	69.5222
426.6000	69.4742
426.5000	69.4235
426.4000	69.3705
426.3000	69.3136
426.2000	69.2599
426.1000	69.2047
426.0000	69.1515
425.9000	69.1018
425.8000	69.0522
425.7000	69.0082
425.6000	68.9631
425.5000	68.9208
425.4000	68.883
425.3000	68.8511
425.2000	68.8167
425.1000	68.7909
425.0000	68.7653
424.9000	68.7467
424.8000	68.7337
424.7000	68.7276
424.6000	68.7225
424.5000	68.72
424.4000	68.7209
424.3000	68.7238
424.2000	68.7314
424.1000	68.7343
424.0000	68.7462
423.9000	68.7599
423.8000	68.7736
423.7000	68.7861
423.6000	68.8024
423.5000	68.8162
423.4000	68.8307
423.3000	68.8378
423.2000	68.8427
423.1000	68.8465
423.0000	68.8434
422.9000	68.8419
422.8000	68.8354
422.7000	68.8242
422.6000	68.8095
422.5000	68.7931
422.4000	68.7674
422.3000	68.7392
422.2000	68.7055
422.1000	68.6691
422.0000	68.6245
421.9000	68.5796
421.8000	68.5314
421.7000	68.4842
421.6000	68.4371
421.5000	68.3829
421.4000	68.3289
421.3000	68.2752
421.2000	68.22
421.1000	68.1702
421.0000	68.116
420.9000	68.0641
420.8000	68.0182
420.7000	67.9744
420.6000	67.93
420.5000	67.8916
420.4000	67.8614
420.3000	67.8297
420.2000	67.8052
420.1000	67.7851
420.0000	67.704
419.9000	67.6923
419.8000	67.6873
419.7000	67.6804
419.6000	67.6849
419.5000	67.6951
419.4000	67.7063
419.3000	67.7193
419.2000	67.7354
419.1000	67.7559
419.0000	67.7785
418.9000	67.8025
418.8000	67.8241
418.7000	67.8405
418.6000	67.8542
418.5000	67.8663
418.4000	67.8731
418.3000	67.878
418.2000	67.8759
418.1000	67.8739
418.0000	67.8677
417.9000	67.852
417.8000	67.8368
417.7000	67.8126
417.6000	67.787
417.5000	67.7529
417.4000	67.7164
417.3000	67.6708
417.2000	67.622
417.1000	67.5724
417.0000	67.5193
416.9000	67.464
416.8000	67.4118
416.7000	67.3524
416.6000	67.2946
416.5000	67.2387
416.4000	67.1793
416.3000	67.1257
416.2000	67.0702
416.1000	67.0198
416.0000	66.9724
415.9000	66.9214
415.8000	66.8783
415.7000	66.8472
415.6000	66.8195
415.5000	66.7935
415.4000	66.777
415.3000	66.767
415.2000	66.7571
415.1000	66.7566
415.0000	66.7638
414.9000	66.7718
414.8000	66.7888
414.7000	66.7997
414.6000	66.8185
414.5000	66.8411
414.4000	66.8664
414.3000	66.8922
414.2000	66.9166
414.1000	66.944
414.0000	66.9693
413.9000	66.9904
413.8000	67.0058
413.7000	67.0191
413.6000	67.0329
413.5000	67.0416
413.4000	67.0418
413.3000	67.0359
413.2000	67.0258
413.1000	67.016
413.0000	66.9968
412.9000	66.9709
412.8000	66.9385
412.7000	66.91
412.6000	66.8744
412.5000	66.8297
412.4000	66.7846
412.3000	66.7389
412.2000	66.6935
412.1000	66.6478
412.0000	66.5996
411.9000	66.548
411.8000	66.5039
411.7000	66.4663
411.6000	66.4254
411.5000	66.391
411.4000	66.3632
411.3000	66.3385
411.2000	66.3196
411.1000	66.3066
411.0000	66.2955
410.9000	66.2938
410.8000	66.2972
410.7000	66.3074
410.6000	66.3212
410.5000	66.3386
410.4000	66.36
410.3000	66.3906
410.2000	66.4194
410.1000	66.4491
410.0000	66.4841
409.9000	66.5184
409.8000	66.5494
409.7000	66.5854
409.6000	66.6178
409.5000	66.6428
409.4000	66.675
409.3000	66.6967
409.2000	66.7148
409.1000	66.7283
409.0000	66.739
408.9000	66.7421
408.8000	66.7425
408.7000	66.7313
408.6000	66.7218
408.5000	66.7069
408.4000	66.6829
408.3000	66.6571
408.2000	66.6275
408.1000	66.5915
408.0000	66.5554
407.9000	66.5201
407.8000	66.4777
407.7000	66.4389
407.6000	66.4021
407.5000	66.364
407.4000	66.3252
407.3000	66.2964
407.2000	66.2699
407.1000	66.2498
407.0000	66.2302
406.9000	66.2155
406.8000	66.2077
406.7000	66.2001
406.6000	66.204
406.5000	66.2095
406.4000	66.2232
406.3000	66.2409
406.2000	66.2623
406.1000	66.287
406.0000	66.3142
405.9000	66.3521
405.8000	66.3903
405.7000	66.4242
405.6000	66.458
405.5000	66.4921
405.4000	66.5219
405.3000	66.5546
405.2000	66.5839
405.1000	66.6156
405.0000	66.6365
404.9000	66.662
404.8000	66.677
404.7000	66.6823
404.6000	66.6899
404.5000	66.6923
404.4000	66.6899
404.3000	66.6789
404.2000	66.6596
404.1000	66.6457
404.0000	66.6266
403.9000	66.606
403.8000	66.5821
403.7000	66.5608
403.6000	66.5389
403.5000	66.5147
403.4000	66.4916
403.3000	66.4716
403.2000	66.4569
403.1000	66.4471
403.0000	66.4395
402.9000	66.4321
402.8000	66.4311
402.7000	66.4311
402.6000	66.4453
402.5000	66.4566
402.4000	66.4765
402.3000	66.495
402.2000	66.526
402.1000	66.5506
402.0000	66.5769
401.9000	66.6084
401.8000	66.6451
401.7000	66.6782
401.6000	66.7097
401.5000	66.7493
401.4000	66.7818
401.3000	66.8164
401.2000	66.848
401.1000	66.8763
401.0000	66.8996
400.9000	66.9188
400.8000	66.9282
400.7000	66.9409
400.6000	66.946
400.5000	66.9507
400.4000	66.9571
400.3000	66.9521
400.2000	66.944
400.1000	66.9375
400.0000	66.9251
399.9000	66.9097
399.8000	66.8938
399.7000	66.8755
399.6000	66.8551
399.5000	66.843
399.4000	66.8299
399.3000	66.818
399.2000	66.8131
399.1000	66.8088
399.0000	66.8076
398.9000	66.8069
398.8000	66.8034
398.7000	66.8119
398.6000	66.8216
398.5000	66.8232
398.4000	66.8416
398.3000	66.8532
398.2000	66.8677
398.1000	66.8899
398.0000	66.9124
397.9000	66.9344
397.8000	66.9565
397.7000	66.9791
397.6000	66.9979
397.5000	67.0194
397.4000	67.0377
397.3000	67.0557
397.2000	67.0742
397.1000	67.0852
397.0000	67.0927
396.9000	67.1104
396.8000	67.1127
396.7000	67.1183
396.6000	67.1139
396.5000	67.1104
396.4000	67.1006
396.3000	67.0835
396.2000	67.067
396.1000	67.0543
396.0000	67.0424
395.9000	67.0194
395.8000	67.0013
395.7000	66.9788
395.6000	66.9615
395.5000	66.9417
395.4000	66.9291
395.3000	66.9113
395.2000	66.8969
395.1000	66.8851
395.0000	66.8838
394.9000	66.8744
394.8000	66.8758
394.7000	66.8796
394.6000	66.8851
394.5000	66.8895
394.4000	66.8974
394.3000	66.9138
394.2000	66.9236
394.1000	66.9369
394.0000	66.9531
393.9000	66.9678
393.8000	66.9784
393.7000	66.9912
393.6000	67.0081
393.5000	67.0249
393.4000	67.0418
393.3000	67.0594
393.2000	67.0708
393.1000	67.0837
393.0000	67.0919
392.9000	67.0998
392.8000	67.11
392.7000	67.1109
392.6000	67.1167
392.5000	67.121
392.4000	67.1213
392.3000	67.127
392.2000	67.1322
392.1000	67.1379
392.0000	67.1425
391.9000	67.1455
391.8000	67.1413
391.7000	67.1393
391.6000	67.1469
391.5000	67.1511
391.4000	67.1574
391.3000	67.1627
391.2000	67.165
391.1000	67.1771
391.0000	67.1838
390.9000	67.1954
390.8000	67.2059
390.7000	67.2158
390.6000	67.2298
390.5000	67.239
390.4000	67.2543
390.3000	67.2656
390.2000	67.2825
390.1000	67.3006
390.0000	67.3032
389.9000	67.3214
389.8000	67.3321
389.7000	67.3474
389.6000	67.3584
389.5000	67.3675
389.4000	67.3836
389.3000	67.3906
389.2000	67.401
389.1000	67.409
389.0000	67.4125
388.9000	67.4175
388.8000	67.4137
388.7000	67.4189
388.6000	67.4194
388.5000	67.4197
388.4000	67.4273
388.3000	67.4192
388.2000	67.4221
388.1000	67.416
388.0000	67.4113
387.9000	67.4078
387.8000	67.4046
387.7000	67.4066
387.6000	67.4096
387.5000	67.4089
387.4000	67.4153
387.3000	67.4183
387.2000	67.4222
387.1000	67.4241
387.0000	67.4229
386.9000	67.4269
386.8000	67.4293
386.7000	67.4365
386.6000	67.436
386.5000	67.4437
386.4000	67.4555
386.3000	67.4642
386.2000	67.4655
386.1000	67.4736
386.0000	67.4727
385.9000	67.478
385.8000	67.4678
385.7000	67.4708
385.6000	67.4697
385.5000	67.4651
385.4000	67.4702
385.3000	67.4693
385.2000	67.4643
385.1000	67.4562
385.0000	67.4497
384.9000	67.4415
384.8000	67.4293
384.7000	67.4178
384.6000	67.4132
384.5000	67.3984
384.4000	67.3837
384.3000	67.3756
384.2000	67.3738
384.1000	67.3659
384.0000	67.3582
383.9000	67.3547
383.8000	67.3439
383.7000	67.332
383.6000	67.3253
383.5000	67.3194
383.4000	67.3178
383.3000	67.3119
383.2000	67.3038
383.1000	67.296
383.0000	67.2882
382.9000	67.279
382.8000	67.2724
382.7000	67.2597
382.6000	67.2461
382.5000	67.2292
382.4000	67.2132
382.3000	67.192
382.2000	67.1766
382.1000	67.1617
382.0000	67.1432
381.9000	67.1252
381.8000	67.1034
381.7000	67.0799
381.6000	67.062
381.5000	67.0395
381.4000	67.0114
381.3000	66.9928
381.2000	66.9726
381.1000	66.9531
381.0000	66.936
380.9000	66.9183
380.8000	66.9013
380.7000	66.8809
380.6000	66.8596
380.5000	66.8336
380.4000	66.8046
380.3000	66.7795
380.2000	66.7527
380.1000	66.7262
380.0000	66.6924
379.9000	66.6641
379.8000	66.6348
379.7000	66.5995
379.6000	66.5703
379.5000	66.5358
379.4000	66.4984
379.3000	66.4585
379.2000	66.4144
379.1000	66.3751
379.0000	66.3319
378.9000	66.2928
378.8000	66.2589
378.7000	66.2239
378.6000	66.1804
378.5000	66.1373
378.4000	66.0965
378.3000	66.0555
378.2000	66.0097
378.1000	65.9632
378.0000	65.9056
377.9000	65.8485
377.8000	65.7912
377.7000	65.7323
377.6000	65.6732
377.5000	65.6164
377.4000	65.5573
377.3000	65.494
377.2000	65.4253
377.1000	65.3488
377.0000	65.276
376.9000	65.2045
376.8000	65.1319
376.7000	65.0543
376.6000	64.9796
376.5000	64.8976
376.4000	64.8206
376.3000	64.7389
376.2000	64.6541
376.1000	64.568
376.0000	64.4809
375.9000	64.3783
375.8000	64.2759
375.7000	64.1691
375.6000	64.0662
375.5000	63.9534
375.4000	63.8379
375.3000	63.7153
375.2000	63.5873
375.1000	63.449
375.0000	63.3083
374.9000	63.1637
374.8000	63.0107
374.7000	62.8513
374.6000	62.6889
374.5000	62.5164
374.4000	62.3383
374.3000	62.158
374.2000	61.9715
374.1000	61.7778
374.0000	61.5628
373.9000	61.3459
373.8000	61.1289
373.7000	60.9031
373.6000	60.6679
373.5000	60.4249
373.4000	60.1681
373.3000	59.8968
373.2000	59.6108
373.1000	59.3208
373.0000	59.015
372.9000	58.7015
372.8000	58.3767
372.7000	58.0389
372.6000	57.6866
372.5000	57.3263
372.4000	56.9499
372.3000	56.5648
372.2000	56.1604
372.1000	55.7395
372.0000	55.3046
371.9000	54.8571
371.8000	54.3966
371.7000	53.929
371.6000	53.4444
371.5000	52.944
371.4000	52.4254
371.3000	51.8959
371.2000	51.3513
371.1000	50.7949
371.0000	50.2156
370.9000	49.6203
370.8000	49.0185
370.7000	48.4016
370.6000	47.7712
370.5000	47.1264
370.4000	46.4672
370.3000	45.7925
370.2000	45.1089
370.1000	44.4036
370.0000	41.3525
369.9000	40.6001
369.8000	39.843
369.7000	39.0815
369.6000	38.3131
369.5000	37.5303
369.4000	36.7341
369.3000	35.9349
369.2000	35.1347
369.1000	34.3282
369.0000	33.5174
368.9000	32.7004
368.8000	31.8873
368.7000	31.0736
368.6000	30.2546
368.5000	29.4342
368.4000	28.6113
368.3000	27.7987
368.2000	26.9909
368.1000	26.1827
368.0000	25.3781
367.9000	24.5788
367.8000	23.789
367.7000	23.0033
367.6000	22.2213
367.5000	21.4501
367.4000	20.691
367.3000	19.9442
367.2000	19.2059
367.1000	18.4794
367.0000	17.7582
366.9000	17.0557
366.8000	16.3696
366.7000	15.6929
366.6000	15.027
366.5000	14.375
366.4000	13.7355
366.3000	13.1145
366.2000	12.5132
366.1000	11.9234
366.0000	11.3538
365.9000	10.7982
365.8000	10.2556
365.7000	9.72828
365.6000	9.21887
365.5000	8.72193
365.4000	8.24459
365.3000	7.78405
365.2000	7.33914
365.1000	6.90892
365.0000	6.49768
364.9000	6.10197
364.8000	5.72571
364.7000	5.36187
364.6000	5.00934
364.5000	4.67505
364.4000	4.35456
364.3000	4.04837
364.2000	3.76022
364.1000	3.48585
364.0000	3.22475
363.9000	2.97777
363.8000	2.74614
363.7000	2.52601
363.6000	2.3176
363.5000	2.1226
363.4000	1.93861
363.3000	1.76891
363.2000	1.60951
363.1000	1.4603
363.0000	1.32225
362.9000	1.19475
362.8000	1.0764
362.7000	0.968287
362.6000	0.86794
362.5000	0.775618
362.4000	0.690962
362.3000	0.614397
362.2000	0.545124
362.1000	0.482306
362.0000	0.425038
361.9000	0.3732
361.8000	0.327168
361.7000	0.285964
361.6000	0.248737
361.5000	0.216074
361.4000	0.187244
361.3000	0.161845
361.2000	0.139715
361.1000	0.120009
361.0000	0.102821
360.9000	0.0879713
360.8000	0.0750695
360.7000	0.063852
360.6000	0.054431
360.5000	0.0463674
360.4000	0.0396892
360.3000	0.0339539
360.2000	0.0291667
360.1000	0.0250265
360.0000	0.0217584
359.9000	0.0189881
359.8000	0.0166874
359.7000	0.0147378
359.6000	0.0131111
359.5000	0.0117593
359.4000	0.0106088
359.3000	0.0096105
359.2000	0.0088599
359.1000	0.00830761
359.0000	0.00780839
358.9000	0.00735764
358.8000	0.00698242
358.7000	0.00663094
358.6000	0.00632999
358.5000	0.00607957
358.4000	0.0058035
358.3000	0.00555249
358.2000	0.00540006
358.1000	0.00527344
358.0000	0.00517478
357.9000	0.00505143
357.8000	0.00490212
357.7000	0.00477504
357.6000	0.00469884
357.5000	0.00449961
357.4000	0.00437137
357.3000	0.00432124
357.2000	0.00424476
357.1000	0.00414422
357.0000	0.00401851
356.9000	0.00396578
356.8000	0.00394069
356.7000	0.00386644
356.6000	0.00374222
356.5000	0.00364247
356.4000	0.0035153
356.3000	0.00338961
356.2000	0.00338771
356.1000	0.0033879
356.0000	0.00333781
355.9000	0.0033381
355.8000	0.00333824
355.7000	0.00323993
355.6000	0.00309329
355.5000	0.00304437
355.4000	0.00302077
355.3000	0.00299602
355.2000	0.00292266
355.1000	0.00289749
355.0000	0.00287338
354.9000	0.00279973
354.8000	0.0028234
354.7000	0.00284749
354.6000	0.00272565
354.5000	0.00267708
354.4000	0.00260392
354.3000	0.00255401
354.2000	0.00245558
354.1000	0.00243138
354.0000	0.00243074
353.9000	0.00245583
353.8000	0.00238243
353.7000	0.00228499
353.6000	0.00223659
353.5000	0.00216341
353.4000	0.00208949
353.3000	0.00208953
353.2000	0.0019921
353.1000	0.00191885
353.0000	0.00194318
352.9000	0.00191888
352.8000	0.00189409
352.7000	0.00189419
352.6000	0.00189414
352.5000	0.00184563
352.4000	0.00189612
352.3000	0.00184706
352.2000	0.00184652
352.1000	0.0018222
352.0000	0.00177245
351.9000	0.00182136
351.8000	0.00179731
351.7000	0.00172372
351.6000	0.00172376
351.5000	0.00179701
351.4000	0.00172339
351.3000	0.00167418
351.2000	0.0015997
351.1000	0.00155018
351.0000	0.0015743
350.9000	0.00154928
350.8000	0.00142552
350.7000	0.00142549
350.6000	0.00145078
350.5000	0.00147447
350.4000	0.00144978
350.3000	0.00140113
350.2000	0.00137688
350.1000	0.00145025
350.0000	0.00149957
349.9000	0.00140193
349.8000	0.00137738
349.7000	0.00130387
349.6000	0.00137834
349.5000	0.00135456
349.4000	0.00125681
349.3000	0.00130573
349.2000	0.00135504
349.1000	0.00130554
349.0000	0.0013293
348.9000	0.00130537
348.8000	0.00130634
348.7000	0.001258
348.6000	0.00125719
348.5000	0.00118348
348.4000	0.00110958
348.3000	0.00108459
348.2000	0.00103528
348.1000	0.00113299
348.0000	0.00108401
347.9000	0.00113272
347.8000	0.00115741
347.7000	0.00108389
347.6000	0.00108364
347.5000	0.00101048
347.4000	0.00098569
347.3000	0.000936098
347.2000	0.00100853
347.1000	0.00103185
347.0000	0.000958494
346.9000	0.000958848
346.8000	0.000934703
346.7000	0.000910126
346.6000	0.000934475
346.5000	0.000909999
346.4000	0.000910101
346.3000	0.000861222
346.2000	0.00086087
346.1000	0.000835999
346.0000	0.000836134
345.9000	0.000860817
345.8000	0.000811644
345.7000	0.000861458
345.6000	0.000837815
345.5000	0.000813403
345.4000	0.00091179
345.3000	0.000911561
345.2000	0.000910869
345.1000	0.000984304
345.0000	0.00100924
344.9000	0.000960707
344.8000	0.000935825
344.7000	0.00093584
344.6000	0.000886789
344.5000	0.000960566
344.4000	0.000960821
344.3000	0.000985586
344.2000	0.00101076
344.1000	0.000936204
344.0000	0.000862003
343.9000	0.000935273
343.8000	0.000886084
343.7000	0.000910249
343.6000	0.000910071
343.5000	0.000860987
343.4000	0.00083655
343.3000	0.000909396
343.2000	0.000958229
343.1000	0.00103209
343.0000	0.00110603
342.9000	0.00103217
342.8000	0.00100665
342.7000	0.00103025
342.6000	0.000981181
342.5000	0.00098182
342.4000	0.000981971
342.3000	0.000908713
342.2000	0.000933102
342.1000	0.000932926
342.0000	0.000982388
341.9000	0.000982421
341.8000	0.00100652
341.7000	0.00103147
341.6000	0.000957946
341.5000	0.000835296
341.4000	0.00078569
341.3000	0.000737202
341.2000	0.000786665
341.1000	0.000713176
341.0000	0.00078655
340.9000	0.00078652
340.8000	0.000810911
340.7000	0.000811092
340.6000	0.000835666
340.5000	0.000811189
340.4000	0.00076224
340.3000	0.000712809
340.2000	0.000737343
340.1000	0.000712365
340.0000	0.00843174
339.9000	0.0083803
339.8000	0.00847953
339.7000	0.00840504
339.6000	0.00845398
339.5000	0.00852863
339.4000	0.00850352
339.3000	0.00845184
339.2000	0.00840283
339.1000	0.00847489
339.0000	0.00847363
338.9000	0.00835138
338.8000	0.00832651
338.7000	0.00839895
338.6000	0.00837029
338.5000	0.00836884
338.4000	0.00842068
338.3000	0.00839802
338.2000	0.00827229
338.1000	0.00817221
338.0000	0.00804937
337.9000	0.00794899
337.8000	0.00797342
337.7000	0.00797447
337.6000	0.00799638
337.5000	0.00799689
337.4000	0.00804445
337.3000	0.0080173
337.2000	0.00796777
337.1000	0.00794413
337.0000	0.00799369
336.9000	0.00801748
336.8000	0.00796603
336.7000	0.00791614
336.6000	0.00791727
336.5000	0.00791741
336.4000	0.00794008
336.3000	0.00799054
336.2000	0.00793965
336.1000	0.00793929
336.0000	0.00788994
335.9000	0.00783655
335.8000	0.00783531
335.7000	0.00776142
335.6000	0.00775949
335.5000	0.00770794
335.4000	0.00758519
335.3000	0.00746091
335.2000	0.00741199
335.1000	0.00738647
335.0000	0.00738405
334.9000	0.00743355
334.8000	0.00735827
334.7000	0.00733293
334.6000	0.00738031
334.5000	0.00732912
334.4000	0.00735386
334.3000	0.00730564
334.2000	0.00715748
334.1000	0.0072065
334.0000	0.00713188
333.9000	0.00705865
333.8000	0.00708122
333.7000	0.00708051
333.6000	0.00703077
333.5000	0.00700607
333.4000	0.00695626
333.3000	0.00685464
333.2000	0.00688018
333.1000	0.00678236
333.0000	0.00668445
332.9000	0.00668299
332.8000	0.00668076
332.7000	0.00665615
332.6000	0.00668064
332.5000	0.00660549
332.4000	0.00665288
332.3000	0.00667576
332.2000	0.00665064
332.1000	0.00657617
332.0000	0.00659878
331.9000	0.00659633
331.8000	0.00666868
331.7000	0.00671956
331.6000	0.00664355
331.5000	0.00656923
331.4000	0.00649434
331.3000	0.00644546
331.2000	0.00637172
331.1000	0.00647003
331.0000	0.00642076
330.9000	0.00646908
330.8000	0.00639496
330.7000	0.00639551
330.6000	0.00636959
330.5000	0.00639436
330.4000	0.00632252
330.3000	0.00634616
330.2000	0.00629642
330.1000	0.00626943
330.0000	0.00629229
329.9000	0.00633815
329.8000	0.00636359
329.7000	0.00633944
329.6000	0.00626512
329.5000	0.00614067
329.4000	0.00616372
329.3000	0.00611234
329.2000	0.00603902
329.1000	0.00598763
329.0000	0.00598893
328.9000	0.0060374
328.8000	0.00605812
328.7000	0.00600986
328.6000	0.00593697
328.5000	0.00591297
328.4000	0.00598684
328.3000	0.00596253
328.2000	0.00593602
328.1000	0.00596106
328.0000	0.00598562
327.9000	0.00598483
327.8000	0.00593544
327.7000	0.00588748
327.6000	0.00600824
327.5000	0.00593475
327.4000	0.00593356
327.3000	0.00588284
327.2000	0.00583423
327.1000	0.00580991
327.0000	0.00583432
326.9000	0.00578548
326.8000	0.00568664
326.7000	0.0056871
326.6000	0.00568811
326.5000	0.00563761
326.4000	0.00561219
326.3000	0.00566078
326.2000	0.00566114
326.1000	0.0056612
326.0000	0.00563714
325.9000	0.00568504
325.8000	0.00568273
325.7000	0.00580677
325.6000	0.00585541
325.5000	0.00583052
325.4000	0.00575309
325.3000	0.00577622
325.2000	0.00572579
325.1000	0.00577287
325.0000	0.00581917
324.9000	0.00586786
324.8000	0.00584342
324.7000	0.00577057
324.6000	0.00586789
324.5000	0.00584276
324.4000	0.00584266
324.3000	0.00584281
324.2000	0.00584404
324.1000	0.00572029
324.0000	0.00562335
323.9000	0.00567174
323.8000	0.00569844
323.7000	0.00574635
323.6000	0.00579725
323.5000	0.00572504
323.4000	0.00562912
323.3000	0.00555495
323.2000	0.00560162
323.1000	0.00557502
323.0000	0.00545344
322.9000	0.0054538
322.8000	0.00537939
322.7000	0.00532957
322.6000	0.00530354
322.5000	0.00525262
322.4000	0.00520154
322.3000	0.00507723
322.2000	0.00495532
322.1000	0.004906
322.0000	0.00490549
321.9000	0.00485429
321.8000	0.0048769
321.7000	0.00477884
321.6000	0.00470565
321.5000	0.00472964
321.4000	0.00475254
321.3000	0.00475106
321.2000	0.00470267
321.1000	0.00472793
321.0000	0.00462982
320.9000	0.00463128
320.8000	0.00467996
320.7000	0.00470563
320.6000	0.00475385
320.5000	0.00470535
320.4000	0.0046311
320.3000	0.00465595
320.2000	0.00465452
320.1000	0.00470336
320.0000	0.00465588
319.9000	0.0046081
319.8000	0.00460648
319.7000	0.00455836
319.6000	0.00450865
319.5000	0.00450862
319.4000	0.00453293
319.3000	0.00455568
319.2000	0.00455604
319.1000	0.00450675
319.0000	0.00448221
318.9000	0.00455649
318.8000	0.00453133
318.7000	0.00450603
318.6000	0.00448339
318.5000	0.00450716
318.4000	0.00452976
318.3000	0.00448035
318.2000	0.00440721
318.1000	0.00443196
318.0000	0.00448028
317.9000	0.00440506
317.8000	0.00440645
317.7000	0.00435744
317.6000	0.00433222
317.5000	0.00438065
317.4000	0.00440341
317.3000	0.00425676
317.2000	0.0043302
317.1000	0.00433043
317.0000	0.00425714
316.9000	0.00418357
316.8000	0.00413637
316.7000	0.00411144
316.6000	0.00415997
316.5000	0.00413373
316.4000	0.0041588
316.3000	0.00416038
316.2000	0.00415909
316.1000	0.00411073
316.0000	0.00406348
315.9000	0.00396467
315.8000	0.00399069
315.7000	0.0039894
315.6000	0.00396638
315.5000	0.00391924
315.4000	0.00389235
315.3000	0.00389084
315.2000	0.00393732
315.1000	0.00391246
315.0000	0.00381526
314.9000	0.00379096
314.8000	0.00376452
314.7000	0.00378854
314.6000	0.00366612
314.5000	0.0036422
314.4000	0.00361444
314.3000	0.00368822
314.2000	0.00368765
314.1000	0.0036636
314.0000	0.00361272
313.9000	0.00353843
313.8000	0.00361089
313.7000	0.00363459
313.6000	0.0036105
313.5000	0.00358605
313.4000	0.00360945
313.3000	0.00363375
313.2000	0.00358625
313.1000	0.00358505
313.0000	0.00363179
312.9000	0.00360703
312.8000	0.00365519
312.7000	0.00358343
312.6000	0.00355888
312.5000	0.0035818
312.4000	0.00355753
312.3000	0.00355676
312.2000	0.0034838
312.1000	0.00348412
312.0000	0.0035075
311.9000	0.00355531
311.8000	0.0034844
311.7000	0.00343557
311.6000	0.00338738
311.5000	0.00329124
311.4000	0.00329065
311.3000	0.00331398
311.2000	0.00326569
311.1000	0.00326596
311.0000	0.00319363
310.9000	0.00319395
310.8000	0.00316958
310.7000	0.00324197
310.6000	0.0032187
310.5000	0.00319491
310.4000	0.00307508
310.3000	0.00312285
310.2000	0.00314526
310.1000	0.0031212
310.0000	0.0031687
309.9000	0.00321592
309.8000	0.00319356
309.7000	0.00316949
309.6000	0.00314509
309.5000	0.00319184
309.4000	0.00321606
309.3000	0.00319178
309.2000	0.00314421
309.1000	0.00309549
309.0000	0.00314262
308.9000	0.00311794
308.8000	0.00318941
308.7000	0.00316483
308.6000	0.00314109
308.5000	0.00318852
308.4000	0.00318821
308.3000	0.00316507
308.2000	0.00316397
308.1000	0.0031878
308.0000	0.00316383
307.9000	0.00313969
307.8000	0.00311501
307.7000	0.00316237
307.6000	0.00318579
307.5000	0.00320984
307.4000	0.00320941
307.3000	0.00318556
307.2000	0.00313732
307.1000	0.00308939
307.0000	0.00311268
306.9000	0.00306452
306.8000	0.00299266
306.7000	0.00299258
306.6000	0.00294455
306.5000	0.00294442
306.4000	0.00296756
306.3000	0.00299102
306.2000	0.00299191
306.1000	0.00289606
306.0000	0.0028479
305.9000	0.00284739
305.8000	0.00279986
305.7000	0.00287093
305.6000	0.00284625
305.5000	0.00279817
305.4000	0.00277428
305.3000	0.00275061
305.2000	0.00274955
305.1000	0.00272483
305.0000	0.00272472
304.9000	0.00272396
304.8000	0.00270032
304.7000	0.00258082
304.6000	0.00262823
304.5000	0.0026273
304.4000	0.00272215
304.3000	0.00265032
304.2000	0.00262654
304.1000	0.00257821
304.0000	0.00257867
303.9000	0.00257854
303.8000	0.00253026
303.7000	0.00245856
303.6000	0.00250596
303.5000	0.00248211
303.4000	0.00250543
303.3000	0.00245833
303.2000	0.00243368
303.1000	0.00248104
303.0000	0.00240904
302.9000	0.00245729
302.8000	0.00240938
302.7000	0.00243237
302.6000	0.00247917
302.5000	0.00245518
302.4000	0.00243141
302.3000	0.00240752
302.2000	0.0024304
302.1000	0.00252495
302.0000	0.00257286
301.9000	0.00259669
301.8000	0.00254907
301.7000	0.0025715
301.6000	0.00259561
301.5000	0.00259515
301.4000	0.00257044
301.3000	0.00249878
301.2000	0.00249887
301.1000	0.00252299
301.0000	0.00242702
300.9000	0.00240298
300.8000	0.00242696
300.7000	0.00249761
300.6000	0.00254569
300.5000	0.00252177
300.4000	0.00245024
300.3000	0.00242596
300.2000	0.0024258
300.1000	0.00235506
300.0000	0.00235459
299.9000	0.00235494
299.8000	0.00235528
299.7000	0.00233145
299.6000	0.00230739
299.5000	0.00223639
299.4000	0.0022845
299.3000	0.0023088
299.2000	0.00223699
299.1000	0.00218961
299.0000	0.00214217
298.9000	0.00211872
298.8000	0.00211822
298.7000	0.00218955
298.6000	0.00218923
298.5000	0.00226006
298.4000	0.00225982
298.3000	0.0022349
298.2000	0.002211
298.1000	0.00230525
298.0000	0.0022815
297.9000	0.00228106
297.8000	0.00225662
297.7000	0.00223173
297.6000	0.00232713
297.5000	0.00230399
297.4000	0.00230352
297.3000	0.002279
297.2000	0.00223185
297.1000	0.00215972
297.0000	0.0022074
296.9000	0.0021364
296.8000	0.00213651
296.7000	0.00208925
296.6000	0.00206528
296.5000	0.00206583
296.4000	0.00216097
296.3000	0.00218453
296.2000	0.00218415
296.1000	0.00213703
296.0000	0.00208875
295.9000	0.00206392
295.8000	0.00203941
295.7000	0.00201565
295.6000	0.00201591
295.5000	0.00199297
295.4000	0.00189662
295.3000	0.00189605
295.2000	0.00191948
295.1000	0.00199167
295.0000	0.0020387
294.9000	0.0019673
294.8000	0.00184858
294.7000	0.00180159
294.6000	0.00182547
294.5000	0.00182514
294.4000	0.00182502
294.3000	0.00187276
294.2000	0.00189826
294.1000	0.00187496
294.0000	0.00185068
293.9000	0.00182625
293.8000	0.00189759
293.7000	0.00192141
293.6000	0.00194575
293.5000	0.00192131
293.4000	0.00194572
293.3000	0.00196992
293.2000	0.00192165
293.1000	0.00196886
293.0000	0.00189792
292.9000	0.00199291
292.8000	0.0020642
292.7000	0.00201653
292.6000	0.00196809
292.5000	0.00199176
292.4000	0.0020153
292.3000	0.00203876
292.2000	0.00201522
292.1000	0.00206271
292.0000	0.00196722
291.9000	0.00194423
291.8000	0.00187227
291.7000	0.00184801
291.6000	0.00191995
291.5000	0.00187202
291.4000	0.00191941
291.3000	0.00182412
291.2000	0.00172896
291.1000	0.00163458
291.0000	0.00161089
290.9000	0.00161007
290.8000	0.00158677
290.7000	0.00158799
290.6000	0.00154094
290.5000	0.0014454
290.4000	0.00149281
290.3000	0.00149213
290.2000	0.00142053
290.1000	0.00142012
290.0000	0.00144349
289.9000	0.00141991
289.8000	0.00137211
289.7000	0.00137269
289.6000	0.00137237
289.5000	0.00144295
289.4000	0.00146645
289.3000	0.00149108
289.2000	0.0015379
289.1000	0.00158472
289.0000	0.00160864
288.9000	0.00165669
288.8000	0.00158548
288.7000	0.00153799
288.6000	0.00163381
288.5000	0.00163426
288.4000	0.00156312
288.3000	0.00151537
288.2000	0.00153887
288.1000	0.00156272
288.0000	0.00153904
287.9000	0.0014917
287.8000	0.0014917
287.7000	0.00141953
287.6000	0.00137265
287.5000	0.00130134
287.4000	0.00130135
287.3000	0.00125388
287.2000	0.00130153
287.1000	0.00132536
287.0000	0.00134839
286.9000	0.0012766
286.8000	0.00130084
286.7000	0.00137256
286.6000	0.00134896
286.5000	0.00127756
286.4000	0.00134846
286.3000	0.00139542
286.2000	0.00141951
286.1000	0.00144341
286.0000	0.00141943
285.9000	0.0013718
285.8000	0.00141835
285.7000	0.00144213
285.6000	0.00144145
285.5000	0.00144153
285.4000	0.00134749
285.3000	0.00137119
285.2000	0.00137071
285.1000	0.00139425
285.0000	0.00141858
284.9000	0.00148942
284.8000	0.00141861
284.7000	0.00139535
284.6000	0.00132389
284.5000	0.00134796
284.4000	0.00134774
284.3000	0.00141903
284.2000	0.0013485
284.1000	0.00132466
284.0000	0.00125348
283.9000	0.00125288
283.8000	0.00130022
283.7000	0.00137154
283.6000	0.00132364
283.5000	0.00127584
283.4000	0.00122829
283.3000	0.00118095
283.2000	0.00120463
283.1000	0.0011803
283.0000	0.00120363
282.9000	0.00115594
282.8000	0.00120314
282.7000	0.00110788
282.6000	0.00113121
282.5000	0.00113098
282.4000	0.00113066
282.3000	0.0011316
282.2000	0.00115541
282.1000	0.00108451
282.0000	0.00108435
281.9000	0.00108477
281.8000	0.00113202
281.7000	0.00117911
281.6000	0.0011324
281.5000	0.00110898
281.4000	0.00110862
281.3000	0.00110849
281.2000	0.0011092
281.1000	0.00115684
281.0000	0.00108609
280.9000	0.00108593
280.8000	0.00111031
280.7000	0.00103877
280.6000	0.00101456
280.5000	0.00106185
280.4000	0.00110934
280.3000	0.00108544
280.2000	0.00108584
280.1000	0.00103877
280.0000	0.00103795
279.9000	0.0010613
279.8000	0.00108548
279.7000	0.00108566
279.6000	0.00101379
279.5000	0.00101407
279.4000	0.00110865
279.3000	0.00115588
279.2000	0.00115567
279.1000	0.00115433
279.0000	0.00113071
278.9000	0.00110709
278.8000	0.0011075
278.7000	0.00117872
278.6000	0.00115392
278.5000	0.00117719
278.4000	0.00117777
278.3000	0.00120158
278.2000	0.00120162
278.1000	0.00124917
278.0000	0.00124909
277.9000	0.00127244
277.8000	0.00122511
277.7000	0.00115456
277.6000	0.00115406
277.5000	0.00117831
277.4000	0.00117738
277.3000	0.00110579
277.2000	0.00103489
277.1000	0.000963895
277.0000	0.000940715
276.9000	0.000869563
276.8000	0.000892827
276.7000	0.000869633
276.6000	0.000821832
276.5000	0.000750577
276.4000	0.000702753
276.3000	0.000678368
276.2000	0.000630943
276.1000	0.000606966
276.0000	0.000607501
275.9000	0.000631255
275.8000	0.000631844
275.7000	0.000679572
275.6000	0.000678622
275.5000	0.000678308
275.4000	0.000654397
275.3000	0.000678403
275.2000	0.00067832
275.1000	0.000677757
275.0000	0.000701144
274.9000	0.000771827
274.8000	0.000819785
274.7000	0.000796543
274.6000	0.000890714
274.5000	0.000867206
274.4000	0.000820182
274.3000	0.000772851
274.2000	0.000725339
274.1000	0.000724726
274.0000	0.000748652
273.9000	0.000795385
273.8000	0.000866189
273.7000	0.000842391
273.6000	0.0007949
273.5000	0.000818791
273.4000	0.00086608
273.3000	0.000865948
273.2000	0.000842531
273.1000	0.000890158
273.0000	0.000866389
272.9000	0.000960533
272.8000	0.00100727
272.7000	0.00100741
272.6000	0.00100758
272.5000	0.000960223
272.4000	0.00093667
272.3000	0.0008902
272.2000	0.000819745
272.1000	0.000795717
272.0000	0.000842313
271.9000	0.000841794
271.8000	0.000795522
271.7000	0.000724804
271.6000	0.000747478
271.5000	0.00072354
271.4000	0.000676196
271.3000	0.000605353
271.2000	0.000581336
271.1000	0.000604185
271.0000	0.000650432
270.9000	0.000674832
270.8000	0.000674993
270.7000	0.00067428
270.6000	0.000744609
270.5000	0.000791642
270.4000	0.000792485
270.3000	0.000745584
270.2000	0.000744617
270.1000	0.00081551
270.0000	0.000769073
269.9000	0.000721354
269.8000	0.000745961
269.7000	0.000745863
269.6000	0.000769759
269.5000	0.000818002
269.4000	0.00079544
269.3000	0.000818777
269.2000	0.000842228
269.1000	0.000865485
269.0000	0.000842239
268.9000	0.00081906
268.8000	0.000819116
268.7000	0.000842494
268.6000	0.000795886
268.5000	0.000772392
268.4000	0.000819569
268.3000	0.000843032
268.2000	0.000866239
268.1000	0.000843212
268.0000	0.000819658
267.9000	0.000772245
267.8000	0.000771922
267.7000	0.000724478
267.6000	0.000724533
267.5000	0.000677761
267.4000	0.000677402
267.3000	0.000724851
267.2000	0.000701345
267.1000	0.000701519
267.0000	0.000677239
266.9000	0.000676246
266.8000	0.000676127
266.7000	0.000700286
266.6000	0.000629341
266.5000	0.000676456
266.4000	0.000629011
266.3000	0.00067614
266.2000	0.000699732
266.1000	0.000723235
266.0000	0.000723305
265.9000	0.00067576
265.8000	0.000628946
265.7000	0.00062884
265.6000	0.000628197
265.5000	0.000675888
265.4000	0.000723093
265.3000	0.000724044
265.2000	0.000724226
265.1000	0.000676327
265.0000	0.000747428
264.9000	0.000747306
264.8000	0.000723987
264.7000	0.000676394
264.6000	0.000653103
264.5000	0.000653304
264.4000	0.000677375
264.3000	0.000701503
264.2000	0.00070128
264.1000	0.000700788
264.0000	0.000677273
263.9000	0.000629535
263.8000	0.00062965
263.7000	0.000605509
263.6000	0.000581304
263.5000	0.000581922
263.4000	0.000511269
263.3000	0.000487362
263.2000	0.000534434
263.1000	0.00051106
263.0000	0.00053471
262.9000	0.000487367
262.8000	0.000415697
262.7000	0.000439536
262.6000	0.000463276
262.5000	0.000416283
262.4000	0.000392505
262.3000	0.000415809
262.2000	0.000368977
262.1000	0.000393126
262.0000	0.000393294
261.9000	0.0004168
261.8000	0.000439776
261.7000	0.000510505
261.6000	0.000604949
261.5000	0.000604743
261.4000	0.000557566
261.3000	0.000605057
261.2000	0.000628759
261.1000	0.000628089
261.0000	0.000604325
260.9000	0.000628148
260.8000	0.000628396
260.7000	0.000605393
260.6000	0.000651948
260.5000	0.000580748
260.4000	0.00058058
260.3000	0.000580275
260.2000	0.000604063
260.1000	0.000556678
260.0000	0.000533941
259.9000	0.00053426
259.8000	0.000533794
259.7000	0.000533469
259.6000	0.000580561
259.5000	0.000604595
259.4000	0.000628674
259.3000	0.000605333
259.2000	0.000676763
259.1000	0.000723457
259.0000	0.0007241
258.9000	0.000794886
258.8000	0.000842647
258.7000	0.000842682
258.6000	0.000771969
258.5000	0.00077191
258.4000	0.00070001
258.3000	0.000747239
258.2000	0.000794891
258.1000	0.000795194
258.0000	0.000725275
257.9000	0.000677298
257.8000	0.000700813
257.7000	0.000700082
257.6000	0.000651829
257.5000	0.000604978
257.4000	0.000556819
257.3000	0.000533817
257.2000	0.000486736
257.1000	0.000487115
257.0000	0.000486523
256.9000	0.000510197
256.8000	0.00053424
256.7000	0.000510925
256.6000	0.000486732
256.5000	0.000510171
256.4000	0.000509525
256.3000	0.000604575
256.2000	0.000580843
256.1000	0.000581888
256.0000	0.000606432
255.9000	0.000606703
255.8000	0.00065427
255.7000	0.000677723
255.6000	0.000724528
255.5000	0.000700411
255.4000	0.000748377
255.3000	0.000748799
255.2000	0.000772719
255.1000	0.000772138
255.0000	0.000796644
254.9000	0.000749825
254.8000	0.000773168
254.7000	0.00074952
254.6000	0.000701992
254.5000	0.000749324
254.4000	0.000772734
254.3000	0.000772794
254.2000	0.000773113
254.1000	0.000701929
254.0000	0.000655465
253.9000	0.000679962
253.8000	0.00072723
253.7000	0.000680013
253.6000	0.000679957
253.5000	0.000680067
253.4000	0.000608915
253.3000	0.000656369
253.2000	0.000681022
253.1000	0.000657396
253.0000	0.000752227
252.9000	0.000728082
252.8000	0.000704533
252.7000	0.000704474
252.6000	0.000681042
252.5000	0.000752037
252.4000	0.000751548
252.3000	0.000751215
252.2000	0.000703803
252.1000	0.000751312
252.0000	0.000703739
251.9000	0.000704537
251.8000	0.000799407
251.7000	0.000799329
251.6000	0.000798442
251.5000	0.000798666
251.4000	0.000774618
251.3000	0.000751004
251.2000	0.000751198
251.1000	0.000751302
251.0000	0.000775104
250.9000	0.000751667
250.8000	0.000727521
250.7000	0.000750643
250.6000	0.000798463
250.5000	0.000798322
250.4000	0.000774535
250.3000	0.000774599
250.2000	0.000750379
250.1000	0.000774088
250.0000	0.000774796
