TITLE	12.1_NP_0
DATA TYPE	ULTRAVIOLET SPECTRUM
ORIGIN	JASCO
OWNER	
DATE	21/05/03
TIME	16:05:55
SPECTROMETER/DATA SYSTEM	
RESOLUTION	
DELTAX	-0.1
XUNITS	NANOMETERS
YUNITS	TRANSMITTANCE
FIRSTX	  850.0000
LASTX	  250.0000
NPOINTS	    6001
FIRSTY	    70.88785
MAXY	    75.88799
MINY	     0.00044
XYDATA
850.0000	70.8878
849.9000	70.7597
849.8000	70.6272
849.7000	70.4827
849.6000	70.3465
849.5000	70.2116
849.4000	70.0667
849.3000	69.9184
849.2000	69.7808
849.1000	69.6415
849.0000	69.504
848.9000	69.3639
848.8000	69.2168
848.7000	69.0746
848.6000	68.9339
848.5000	68.7871
848.4000	68.646
848.3000	68.5027
848.2000	68.3643
848.1000	68.221
848.0000	68.0772
847.9000	67.9324
847.8000	67.7999
847.7000	67.6685
847.6000	67.5249
847.5000	67.3859
847.4000	67.2543
847.3000	67.128
847.2000	66.9861
847.1000	66.867
847.0000	66.7337
846.9000	66.6079
846.8000	66.4824
846.7000	66.3563
846.6000	66.2303
846.5000	66.1149
846.4000	65.9983
846.3000	65.8843
846.2000	65.7714
846.1000	65.6526
846.0000	65.5424
845.9000	65.4284
845.8000	65.3115
845.7000	65.1967
845.6000	65.0893
845.5000	64.9748
845.4000	64.8689
845.3000	64.7645
845.2000	64.6611
845.1000	64.5561
845.0000	64.4601
844.9000	64.364
844.8000	64.2724
844.7000	64.1847
844.6000	64.0928
844.5000	64.0088
844.4000	63.9267
844.3000	63.8503
844.2000	63.7774
844.1000	63.7027
844.0000	63.6349
843.9000	63.5636
843.8000	63.4964
843.7000	63.4323
843.6000	63.3725
843.5000	63.3161
843.4000	63.2582
843.3000	63.1982
843.2000	63.1468
843.1000	63.0984
843.0000	63.0578
842.9000	63.0169
842.8000	62.9812
842.7000	62.9431
842.6000	62.9197
842.5000	62.8911
842.4000	62.8659
842.3000	62.8437
842.2000	62.8302
842.1000	62.82
842.0000	62.8085
841.9000	62.7951
841.8000	62.7851
841.7000	62.7913
841.6000	62.7936
841.5000	62.7895
841.4000	62.7892
841.3000	62.7974
841.2000	62.8003
841.1000	62.8104
841.0000	62.8154
840.9000	62.836
840.8000	62.8553
840.7000	62.877
840.6000	62.9054
840.5000	62.931
840.4000	62.9692
840.3000	63.009
840.2000	63.0572
840.1000	63.0943
840.0000	63.133
839.9000	63.1865
839.8000	63.2375
839.7000	63.2841
839.6000	63.3401
839.5000	63.3961
839.4000	63.4551
839.3000	63.5121
839.2000	63.5761
839.1000	63.6439
839.0000	63.7119
838.9000	63.7836
838.8000	63.8462
838.7000	63.9208
838.6000	63.9939
838.5000	64.0787
838.4000	64.1664
838.3000	64.2532
838.2000	64.3412
838.1000	64.4307
838.0000	64.5275
837.9000	64.6212
837.8000	64.7215
837.7000	64.8256
837.6000	64.9366
837.5000	65.0515
837.4000	65.1562
837.3000	65.2697
837.2000	65.3895
837.1000	65.5039
837.0000	65.6245
836.9000	65.7395
836.8000	65.8612
836.7000	65.9778
836.6000	66.1015
836.5000	66.2245
836.4000	66.3492
836.3000	66.4841
836.2000	66.6065
836.1000	66.7384
836.0000	66.8723
835.9000	67.0024
835.8000	67.1353
835.7000	67.2618
835.6000	67.3911
835.5000	67.5272
835.4000	67.6628
835.3000	67.8035
835.2000	67.9435
835.1000	68.0886
835.0000	68.2273
834.9000	68.3746
834.8000	68.5143
834.7000	68.6484
834.6000	68.7941
834.5000	68.9312
834.4000	69.0623
834.3000	69.1951
834.2000	69.3314
834.1000	69.4679
834.0000	69.6124
833.9000	69.7485
833.8000	69.8759
833.7000	70.0107
833.6000	70.1359
833.5000	70.2618
833.4000	70.3902
833.3000	70.5117
833.2000	70.646
833.1000	70.7735
833.0000	70.9039
832.9000	71.0268
832.8000	71.1438
832.7000	71.2667
832.6000	71.388
832.5000	71.5103
832.4000	71.6235
832.3000	71.7323
832.2000	71.8515
832.1000	71.9537
832.0000	72.0595
831.9000	72.155
831.8000	72.2571
831.7000	72.3526
831.6000	72.4371
831.5000	72.5271
831.4000	72.6085
831.3000	72.6922
831.2000	72.7766
831.1000	72.8512
831.0000	72.9254
830.9000	72.9975
830.8000	73.0606
830.7000	73.128
830.6000	73.1789
830.5000	73.2406
830.4000	73.2929
830.3000	73.3429
830.2000	73.39
830.1000	73.431
830.0000	73.465
829.9000	73.5017
829.8000	73.5283
829.7000	73.5573
829.6000	73.5793
829.5000	73.5961
829.4000	73.6126
829.3000	73.6185
829.2000	73.6261
829.1000	73.6317
829.0000	73.6423
828.9000	73.6332
828.8000	73.6288
828.7000	73.6249
828.6000	73.6098
828.5000	73.603
828.4000	73.5845
828.3000	73.5541
828.2000	73.5312
828.1000	73.4924
828.0000	73.4581
827.9000	73.4201
827.8000	73.3735
827.7000	73.328
827.6000	73.2716
827.5000	73.2109
827.4000	73.1401
827.3000	73.0837
827.2000	73.0116
827.1000	72.9447
827.0000	72.8704
826.9000	72.7825
826.8000	72.702
826.7000	72.619
826.6000	72.5334
826.5000	72.4425
826.4000	72.3501
826.3000	72.2587
826.2000	72.1523
826.1000	72.0426
826.0000	71.944
825.9000	71.8321
825.8000	71.7272
825.7000	71.6021
825.6000	71.4871
825.5000	71.3585
825.4000	71.2392
825.3000	71.1219
825.2000	70.9952
825.1000	70.8709
825.0000	70.7326
824.9000	70.6033
824.8000	70.466
824.7000	70.3268
824.6000	70.1958
824.5000	70.0617
824.4000	69.9206
824.3000	69.7849
824.2000	69.6346
824.1000	69.4942
824.0000	69.3485
823.9000	69.2127
823.8000	69.0667
823.7000	68.9144
823.6000	68.7673
823.5000	68.6092
823.4000	68.4615
823.3000	68.3159
823.2000	68.1722
823.1000	68.0205
823.0000	67.8746
822.9000	67.7273
822.8000	67.5767
822.7000	67.431
822.6000	67.2903
822.5000	67.1506
822.4000	67.009
822.3000	66.8618
822.2000	66.7135
822.1000	66.5711
822.0000	66.4234
821.9000	66.2913
821.8000	66.1532
821.7000	66.0127
821.6000	65.8719
821.5000	65.7403
821.4000	65.6012
821.3000	65.4661
821.2000	65.3345
821.1000	65.201
821.0000	65.0698
820.9000	64.9346
820.8000	64.807
820.7000	64.6841
820.6000	64.5568
820.5000	64.4392
820.4000	64.3274
820.3000	64.2073
820.2000	64.0949
820.1000	63.9798
820.0000	63.8742
819.9000	63.7624
819.8000	63.6577
819.7000	63.5606
819.6000	63.4601
819.5000	63.3641
819.4000	63.2739
819.3000	63.1797
819.2000	63.0937
819.1000	62.9991
819.0000	62.9235
818.9000	62.8464
818.8000	62.7707
818.7000	62.6971
818.6000	62.6219
818.5000	62.5566
818.4000	62.4911
818.3000	62.4332
818.2000	62.375
818.1000	62.3151
818.0000	62.2607
817.9000	62.2108
817.8000	62.161
817.7000	62.1252
817.6000	62.0841
817.5000	62.0524
817.4000	62.0154
817.3000	61.9785
817.2000	61.9525
817.1000	61.934
817.0000	61.9183
816.9000	61.9079
816.8000	61.8917
816.7000	61.8777
816.6000	61.8721
816.5000	61.8735
816.4000	61.876
816.3000	61.8816
816.2000	61.894
816.1000	61.908
816.0000	61.9256
815.9000	61.9433
815.8000	61.9702
815.7000	62.0016
815.6000	62.0332
815.5000	62.0667
815.4000	62.1014
815.3000	62.1343
815.2000	62.1766
815.1000	62.2241
815.0000	62.2766
814.9000	62.3297
814.8000	62.3934
814.7000	62.4549
814.6000	62.5135
814.5000	62.5789
814.4000	62.6423
814.3000	62.7199
814.2000	62.7932
814.1000	62.868
814.0000	62.9488
813.9000	63.0277
813.8000	63.1165
813.7000	63.2076
813.6000	63.2981
813.5000	63.3967
813.4000	63.4957
813.3000	63.5952
813.2000	63.6964
813.1000	63.8035
813.0000	63.9123
812.9000	64.0245
812.8000	64.1405
812.7000	64.2484
812.6000	64.3653
812.5000	64.483
812.4000	64.6024
812.3000	64.7209
812.2000	64.8473
812.1000	64.9744
812.0000	65.105
811.9000	65.2339
811.8000	65.3615
811.7000	65.4965
811.6000	65.6285
811.5000	65.7625
811.4000	65.9035
811.3000	66.0415
811.2000	66.1808
811.1000	66.3272
811.0000	66.4745
810.9000	66.6212
810.8000	66.7657
810.7000	66.9174
810.6000	67.0658
810.5000	67.2076
810.4000	67.3508
810.3000	67.4958
810.2000	67.6449
810.1000	67.7912
810.0000	67.9372
809.9000	68.0805
809.8000	68.2327
809.7000	68.3808
809.6000	68.5313
809.5000	68.6789
809.4000	68.8282
809.3000	68.9796
809.2000	69.124
809.1000	69.2733
809.0000	69.4114
808.9000	69.5621
808.8000	69.7174
808.7000	69.8618
808.6000	70.0009
808.5000	70.1387
808.4000	70.2816
808.3000	70.4174
808.2000	70.5415
808.1000	70.668
808.0000	70.7909
807.9000	70.9143
807.8000	71.0318
807.7000	71.1483
807.6000	71.2646
807.5000	71.3745
807.4000	71.4885
807.3000	71.594
807.2000	71.6936
807.1000	71.7895
807.0000	71.8923
806.9000	71.9919
806.8000	72.0757
806.7000	72.1653
806.6000	72.2517
806.5000	72.3317
806.4000	72.413
806.3000	72.4865
806.2000	72.5549
806.1000	72.6187
806.0000	72.6827
805.9000	72.7449
805.8000	72.7951
805.7000	72.8448
805.6000	72.888
805.5000	72.9362
805.4000	72.9694
805.3000	72.995
805.2000	73.022
805.1000	73.0452
805.0000	73.0684
804.9000	73.0875
804.8000	73.0963
804.7000	73.1046
804.6000	73.1003
804.5000	73.098
804.4000	73.0879
804.3000	73.0756
804.2000	73.0604
804.1000	73.0327
804.0000	73.0021
803.9000	72.9676
803.8000	72.9346
803.7000	72.8929
803.6000	72.8564
803.5000	72.8045
803.4000	72.7434
803.3000	72.6843
803.2000	72.6215
803.1000	72.5521
803.0000	72.4838
802.9000	72.4067
802.8000	72.3315
802.7000	72.2448
802.6000	72.1604
802.5000	72.0724
802.4000	71.9853
802.3000	71.8922
802.2000	71.7912
802.1000	71.691
802.0000	71.5812
801.9000	71.4741
801.8000	71.3642
801.7000	71.2472
801.6000	71.127
801.5000	71.0049
801.4000	70.8835
801.3000	70.7602
801.2000	70.6362
801.1000	70.5084
801.0000	70.3771
800.9000	70.2441
800.8000	70.1028
800.7000	69.963
800.6000	69.8155
800.5000	69.672
800.4000	69.5242
800.3000	69.3745
800.2000	69.2214
800.1000	69.0683
800.0000	68.9156
799.9000	68.7609
799.8000	68.6056
799.7000	68.4458
799.6000	68.2848
799.5000	68.121
799.4000	67.9579
799.3000	67.8022
799.2000	67.6433
799.1000	67.4792
799.0000	67.3264
798.9000	67.1679
798.8000	67.0103
798.7000	66.8586
798.6000	66.7092
798.5000	66.5503
798.4000	66.3964
798.3000	66.2412
798.2000	66.0898
798.1000	65.9354
798.0000	65.784
797.9000	65.6399
797.8000	65.4913
797.7000	65.3427
797.6000	65.1951
797.5000	65.0579
797.4000	64.9131
797.3000	64.7778
797.2000	64.6456
797.1000	64.5106
797.0000	64.3783
796.9000	64.2537
796.8000	64.129
796.7000	64.0108
796.6000	63.887
796.5000	63.7723
796.4000	63.6521
796.3000	63.5356
796.2000	63.4262
796.1000	63.3167
796.0000	63.2222
795.9000	63.1148
795.8000	63.0188
795.7000	62.9187
795.6000	62.8197
795.5000	62.725
795.4000	62.6361
795.3000	62.552
795.2000	62.4705
795.1000	62.3913
795.0000	62.3218
794.9000	62.2501
794.8000	62.1899
794.7000	62.1321
794.6000	62.0734
794.5000	62.0237
794.4000	61.9626
794.3000	61.9116
794.2000	61.8655
794.1000	61.8276
794.0000	61.794
793.9000	61.7636
793.8000	61.7326
793.7000	61.7102
793.6000	61.6906
793.5000	61.6759
793.4000	61.6611
793.3000	61.6531
793.2000	61.6505
793.1000	61.646
793.0000	61.6484
792.9000	61.6502
792.8000	61.6645
792.7000	61.6802
792.6000	61.6983
792.5000	61.7174
792.4000	61.7471
792.3000	61.774
792.2000	61.8081
792.1000	61.8464
792.0000	61.8867
791.9000	61.9291
791.8000	61.9753
791.7000	62.0309
791.6000	62.0789
791.5000	62.1372
791.4000	62.1973
791.3000	62.2623
791.2000	62.3286
791.1000	62.4044
791.0000	62.4801
790.9000	62.5607
790.8000	62.6431
790.7000	62.7296
790.6000	62.8194
790.5000	62.9087
790.4000	63.0039
790.3000	63.106
790.2000	63.2083
790.1000	63.3134
790.0000	63.4311
789.9000	63.5454
789.8000	63.6614
789.7000	63.7806
789.6000	63.9099
789.5000	64.0363
789.4000	64.1627
789.3000	64.2924
789.2000	64.4198
789.1000	64.5591
789.0000	64.695
788.9000	64.832
788.8000	64.9701
788.7000	65.1064
788.6000	65.2536
788.5000	65.3973
788.4000	65.5383
788.3000	65.6853
788.2000	65.8363
788.1000	65.9897
788.0000	66.1362
787.9000	66.2876
787.8000	66.4438
787.7000	66.5991
787.6000	66.7548
787.5000	66.9094
787.4000	67.0663
787.3000	67.2265
787.2000	67.3833
787.1000	67.5452
787.0000	67.7015
786.9000	67.8569
786.8000	68.0108
786.7000	68.1645
786.6000	68.3226
786.5000	68.4789
786.4000	68.6264
786.3000	68.7776
786.2000	68.9278
786.1000	69.0772
786.0000	69.2269
785.9000	69.3778
785.8000	69.5252
785.7000	69.6687
785.6000	69.8156
785.5000	69.9539
785.4000	70.0902
785.3000	70.2274
785.2000	70.3605
785.1000	70.4943
785.0000	70.6196
784.9000	70.7422
784.8000	70.8732
784.7000	70.9938
784.6000	71.1175
784.5000	71.2327
784.4000	71.3455
784.3000	71.4467
784.2000	71.5514
784.1000	71.6504
784.0000	71.748
783.9000	71.8405
783.8000	71.9309
783.7000	72.0161
783.6000	72.1018
783.5000	72.1773
783.4000	72.2558
783.3000	72.325
783.2000	72.3796
783.1000	72.4372
783.0000	72.4893
782.9000	72.5373
782.8000	72.5815
782.7000	72.6214
782.6000	72.6533
782.5000	72.6851
782.4000	72.7133
782.3000	72.7378
782.2000	72.7537
782.1000	72.7646
782.0000	72.7692
781.9000	72.7735
781.8000	72.7693
781.7000	72.76
781.6000	72.7561
781.5000	72.7415
781.4000	72.7153
781.3000	72.6913
781.2000	72.6605
781.1000	72.6271
781.0000	72.5902
780.9000	72.5404
780.8000	72.4887
780.7000	72.435
780.6000	72.3731
780.5000	72.3123
780.4000	72.2433
780.3000	72.168
780.2000	72.0874
780.1000	72.0085
780.0000	71.9164
779.9000	71.8277
779.8000	71.7358
779.7000	71.6329
779.6000	71.526
779.5000	71.4177
779.4000	71.3055
779.3000	71.1933
779.2000	71.0735
779.1000	70.953
779.0000	70.8393
778.9000	70.7128
778.8000	70.5801
778.7000	70.4437
778.6000	70.3084
778.5000	70.1637
778.4000	70.029
778.3000	69.8845
778.2000	69.7377
778.1000	69.5973
778.0000	69.4473
777.9000	69.2967
777.8000	69.1415
777.7000	68.9901
777.6000	68.8339
777.5000	68.6705
777.4000	68.5066
777.3000	68.3437
777.2000	68.1845
777.1000	68.0273
777.0000	67.8651
776.9000	67.7111
776.8000	67.55
776.7000	67.3888
776.6000	67.2316
776.5000	67.0657
776.4000	66.9125
776.3000	66.7539
776.2000	66.5958
776.1000	66.4397
776.0000	66.2805
775.9000	66.1266
775.8000	65.9747
775.7000	65.8223
775.6000	65.6706
775.5000	65.5183
775.4000	65.372
775.3000	65.2248
775.2000	65.0805
775.1000	64.9367
775.0000	64.7902
774.9000	64.6517
774.8000	64.5102
774.7000	64.3765
774.6000	64.2436
774.5000	64.1136
774.4000	63.9893
774.3000	63.8613
774.2000	63.7346
774.1000	63.6132
774.0000	63.5007
773.9000	63.3908
773.8000	63.2811
773.7000	63.1753
773.6000	63.0679
773.5000	62.9707
773.4000	62.8739
773.3000	62.7816
773.2000	62.6912
773.1000	62.6011
773.0000	62.5221
772.9000	62.4431
772.8000	62.3694
772.7000	62.3026
772.6000	62.2351
772.5000	62.1726
772.4000	62.1088
772.3000	62.051
772.2000	61.9944
772.1000	61.9413
772.0000	61.898
771.9000	61.8536
771.8000	61.8195
771.7000	61.7839
771.6000	61.7577
771.5000	61.7376
771.4000	61.7146
771.3000	61.6976
771.2000	61.6823
771.1000	61.6752
771.0000	61.6719
770.9000	61.6742
770.8000	61.6827
770.7000	61.6894
770.6000	61.706
770.5000	61.7271
770.4000	61.7511
770.3000	61.7765
770.2000	61.8079
770.1000	61.8423
770.0000	61.8792
769.9000	61.9189
769.8000	61.9656
769.7000	62.0186
769.6000	62.0757
769.5000	62.135
769.4000	62.1995
769.3000	62.2691
769.2000	62.3379
769.1000	62.4187
769.0000	62.5006
768.9000	62.5825
768.8000	62.6685
768.7000	62.763
768.6000	62.8566
768.5000	62.9636
768.4000	63.0663
768.3000	63.1765
768.2000	63.291
768.1000	63.401
768.0000	63.5173
767.9000	63.6371
767.8000	63.762
767.7000	63.8854
767.6000	64.0139
767.5000	64.145
767.4000	64.2796
767.3000	64.4143
767.2000	64.5514
767.1000	64.6894
767.0000	64.8337
766.9000	64.9774
766.8000	65.1213
766.7000	65.2673
766.6000	65.4166
766.5000	65.5738
766.4000	65.7299
766.3000	65.886
766.2000	66.0396
766.1000	66.1998
766.0000	66.3574
765.9000	66.5153
765.8000	66.6782
765.7000	66.8437
765.6000	67.0091
765.5000	67.178
765.4000	67.3452
765.3000	67.5087
765.2000	67.6787
765.1000	67.8443
765.0000	68.0105
764.9000	68.1759
764.8000	68.339
764.7000	68.5007
764.6000	68.6625
764.5000	68.8239
764.4000	68.9909
764.3000	69.1554
764.2000	69.3095
764.1000	69.4639
764.0000	69.6208
763.9000	69.7705
763.8000	69.9228
763.7000	70.07
763.6000	70.2128
763.5000	70.3583
763.4000	70.4977
763.3000	70.6316
763.2000	70.7657
763.1000	70.8988
763.0000	71.0306
762.9000	71.1521
762.8000	71.2783
762.7000	71.3909
762.6000	71.5074
762.5000	71.617
762.4000	71.7221
762.3000	71.8255
762.2000	71.9184
762.1000	72.0093
762.0000	72.1048
761.9000	72.1896
761.8000	72.2699
761.7000	72.3411
761.6000	72.4108
761.5000	72.4767
761.4000	72.5298
761.3000	72.5883
761.2000	72.6291
761.1000	72.6763
761.0000	72.7111
760.9000	72.7441
760.8000	72.7675
760.7000	72.7893
760.6000	72.8039
760.5000	72.8181
760.4000	72.8176
760.3000	72.8163
760.2000	72.8114
760.1000	72.8052
760.0000	72.7872
759.9000	72.7593
759.8000	72.7396
759.7000	72.7024
759.6000	72.6687
759.5000	72.6253
759.4000	72.5764
759.3000	72.5218
759.2000	72.4658
759.1000	72.3995
759.0000	72.3311
758.9000	72.2571
758.8000	72.1812
758.7000	72.0934
758.6000	72.0036
758.5000	71.9077
758.4000	71.8113
758.3000	71.7124
758.2000	71.6043
758.1000	71.494
758.0000	71.3708
757.9000	71.253
757.8000	71.1314
757.7000	71.0057
757.6000	70.8788
757.5000	70.7504
757.4000	70.6111
757.3000	70.4699
757.2000	70.3288
757.1000	70.1909
757.0000	70.0441
756.9000	69.8959
756.8000	69.7431
756.7000	69.5901
756.6000	69.4354
756.5000	69.2802
756.4000	69.1256
756.3000	68.9661
756.2000	68.8044
756.1000	68.6424
756.0000	68.4762
755.9000	68.3073
755.8000	68.1462
755.7000	67.9853
755.6000	67.8196
755.5000	67.6492
755.4000	67.4822
755.3000	67.3203
755.2000	67.158
755.1000	66.9949
755.0000	66.8293
754.9000	66.671
754.8000	66.5109
754.7000	66.3479
754.6000	66.1898
754.5000	66.0345
754.4000	65.8755
754.3000	65.7206
754.2000	65.5655
754.1000	65.4124
754.0000	65.2598
753.9000	65.1121
753.8000	64.9717
753.7000	64.8266
753.6000	64.6846
753.5000	64.5441
753.4000	64.4077
753.3000	64.2697
753.2000	64.1423
753.1000	64.0132
753.0000	63.8889
752.9000	63.7661
752.8000	63.6514
752.7000	63.5402
752.6000	63.4355
752.5000	63.3253
752.4000	63.2271
752.3000	63.1314
752.2000	63.0317
752.1000	62.9407
752.0000	62.8571
751.9000	62.7762
751.8000	62.7038
751.7000	62.6307
751.6000	62.5619
751.5000	62.5027
751.4000	62.4428
751.3000	62.3851
751.2000	62.3369
751.1000	62.292
751.0000	62.2483
750.9000	62.2174
750.8000	62.18
750.7000	62.1538
750.6000	62.1346
750.5000	62.1141
750.4000	62.0971
750.3000	62.0884
750.2000	62.0824
750.1000	62.0862
750.0000	62.0885
749.9000	62.0972
749.8000	62.1135
749.7000	62.1343
749.6000	62.1535
749.5000	62.1817
749.4000	62.2157
749.3000	62.251
749.2000	62.2988
749.1000	62.3418
749.0000	62.3943
748.9000	62.455
748.8000	62.5172
748.7000	62.5839
748.6000	62.6561
748.5000	62.7257
748.4000	62.8084
748.3000	62.8894
748.2000	62.979
748.1000	63.0739
748.0000	63.1752
747.9000	63.2756
747.8000	63.3793
747.7000	63.4883
747.6000	63.5982
747.5000	63.7187
747.4000	63.8355
747.3000	63.9606
747.2000	64.0864
747.1000	64.2146
747.0000	64.3486
746.9000	64.4894
746.8000	64.6248
746.7000	64.7702
746.6000	64.9159
746.5000	65.0621
746.4000	65.212
746.3000	65.3673
746.2000	65.5245
746.1000	65.6836
746.0000	65.8416
745.9000	66.005
745.8000	66.1684
745.7000	66.3285
745.6000	66.4995
745.5000	66.6689
745.4000	66.8379
745.3000	67.0106
745.2000	67.1853
745.1000	67.3569
745.0000	67.5299
744.9000	67.7067
744.8000	67.8785
744.7000	68.0549
744.6000	68.2262
744.5000	68.3986
744.4000	68.5745
744.3000	68.7462
744.2000	68.9188
744.1000	69.0925
744.0000	69.2602
743.9000	69.4275
743.8000	69.591
743.7000	69.7508
743.6000	69.9128
743.5000	70.0714
743.4000	70.2274
743.3000	70.3853
743.2000	70.5334
743.1000	70.6733
743.0000	70.821
742.9000	70.961
742.8000	71.1041
742.7000	71.2348
742.6000	71.3651
742.5000	71.4912
742.4000	71.613
742.3000	71.7335
742.2000	71.8461
742.1000	71.9573
742.0000	72.0598
741.9000	72.1609
741.8000	72.2567
741.7000	72.343
741.6000	72.4322
741.5000	72.5192
741.4000	72.5922
741.3000	72.6609
741.2000	72.7199
741.1000	72.7775
741.0000	72.8285
740.9000	72.8745
740.8000	72.9141
740.7000	72.9472
740.6000	72.9756
740.5000	72.9973
740.4000	73.0181
740.3000	73.0299
740.2000	73.0366
740.1000	73.0327
740.0000	73.024
739.9000	73.0144
739.8000	72.9937
739.7000	72.9765
739.6000	72.9454
739.5000	72.9087
739.4000	72.8765
739.3000	72.8293
739.2000	72.7755
739.1000	72.7154
739.0000	72.6504
738.9000	72.5819
738.8000	72.5092
738.7000	72.4309
738.6000	72.3484
738.5000	72.2575
738.4000	72.165
738.3000	72.0637
738.2000	71.9619
738.1000	71.8487
738.0000	71.7393
737.9000	71.6257
737.8000	71.4982
737.7000	71.3768
737.6000	71.2515
737.5000	71.1209
737.4000	70.9868
737.3000	70.8475
737.2000	70.7038
737.1000	70.559
737.0000	70.4099
736.9000	70.2592
736.8000	70.1058
736.7000	69.9504
736.6000	69.7937
736.5000	69.6379
736.4000	69.4796
736.3000	69.3112
736.2000	69.1523
736.1000	68.989
736.0000	68.8233
735.9000	68.655
735.8000	68.4844
735.7000	68.3207
735.6000	68.1573
735.5000	67.988
735.4000	67.8169
735.3000	67.6535
735.2000	67.488
735.1000	67.3262
735.0000	67.166
734.9000	67.0017
734.8000	66.8386
734.7000	66.6829
734.6000	66.5222
734.5000	66.3611
734.4000	66.2068
734.3000	66.0586
734.2000	65.909
734.1000	65.7578
734.0000	65.6105
733.9000	65.4692
733.8000	65.3322
733.7000	65.195
733.6000	65.063
733.5000	64.9271
733.4000	64.7945
733.3000	64.6673
733.2000	64.5456
733.1000	64.4295
733.0000	64.3126
732.9000	64.2028
732.8000	64.0921
732.7000	63.9872
732.6000	63.8918
732.5000	63.7956
732.4000	63.7049
732.3000	63.6166
732.2000	63.5324
732.1000	63.4524
732.0000	63.377
731.9000	63.3081
731.8000	63.2472
731.7000	63.1881
731.6000	63.1312
731.5000	63.0793
731.4000	63.0391
731.3000	63.0001
731.2000	62.9724
731.1000	62.9434
731.0000	62.9197
730.9000	62.902
730.8000	62.8882
730.7000	62.8808
730.6000	62.8814
730.5000	62.8855
730.4000	62.8928
730.3000	62.9066
730.2000	62.9221
730.1000	62.9457
730.0000	62.976
729.9000	63.0046
729.8000	63.0393
729.7000	63.0811
729.6000	63.1266
729.5000	63.1763
729.4000	63.2303
729.3000	63.293
729.2000	63.3589
729.1000	63.4285
729.0000	63.5035
728.9000	63.5833
728.8000	63.6678
728.7000	63.7588
728.6000	63.8524
728.5000	63.949
728.4000	64.0497
728.3000	64.1611
728.2000	64.2715
728.1000	64.3858
728.0000	64.4981
727.9000	64.624
727.8000	64.7507
727.7000	64.8834
727.6000	65.0146
727.5000	65.154
727.4000	65.2918
727.3000	65.434
727.2000	65.58
727.1000	65.7297
727.0000	65.8812
726.9000	66.038
726.8000	66.1996
726.7000	66.3613
726.6000	66.5251
726.5000	66.6927
726.4000	66.8654
726.3000	67.0339
726.2000	67.206
726.1000	67.3701
726.0000	67.5448
725.9000	67.718
725.8000	67.8952
725.7000	68.0703
725.6000	68.2493
725.5000	68.4223
725.4000	68.6031
725.3000	68.7789
725.2000	68.9532
725.1000	69.1271
725.0000	69.2989
724.9000	69.4715
724.8000	69.6383
724.7000	69.8085
724.6000	69.9761
724.5000	70.1466
724.4000	70.3104
724.3000	70.4733
724.2000	70.6308
724.1000	70.7893
724.0000	70.9417
723.9000	71.0971
723.8000	71.2431
723.7000	71.3861
723.6000	71.5266
723.5000	71.6674
723.4000	71.8056
723.3000	71.9338
723.2000	72.0638
723.1000	72.1855
723.0000	72.3018
722.9000	72.4171
722.8000	72.5255
722.7000	72.6275
722.6000	72.7256
722.5000	72.8157
722.4000	72.9021
722.3000	72.9823
722.2000	73.052
722.1000	73.1229
722.0000	73.1863
721.9000	73.2415
721.8000	73.2895
721.7000	73.3353
721.6000	73.3708
721.5000	73.4032
721.4000	73.4299
721.3000	73.4462
721.2000	73.4616
721.1000	73.4699
721.0000	73.4688
720.9000	73.4631
720.8000	73.4529
720.7000	73.4382
720.6000	73.4206
720.5000	73.3974
720.4000	73.3585
720.3000	73.317
720.2000	73.2719
720.1000	73.2149
720.0000	73.1593
719.9000	73.0925
719.8000	73.0255
719.7000	72.9528
719.6000	72.8714
719.5000	72.787
719.4000	72.697
719.3000	72.6048
719.2000	72.5049
719.1000	72.3996
719.0000	72.2915
718.9000	72.1705
718.8000	72.0546
718.7000	71.9358
718.6000	71.8096
718.5000	71.6859
718.4000	71.5495
718.3000	71.4148
718.2000	71.2735
718.1000	71.1251
718.0000	70.9803
717.9000	70.8279
717.8000	70.6811
717.7000	70.5257
717.6000	70.3655
717.5000	70.2041
717.4000	70.041
717.3000	69.8833
717.2000	69.7226
717.1000	69.5564
717.0000	69.3948
716.9000	69.2303
716.8000	69.0677
716.7000	68.9042
716.6000	68.7387
716.5000	68.5804
716.4000	68.4164
716.3000	68.2547
716.2000	68.0922
716.1000	67.9329
716.0000	67.7776
715.9000	67.6175
715.8000	67.4616
715.7000	67.306
715.6000	67.1523
715.5000	66.9991
715.4000	66.8448
715.3000	66.6932
715.2000	66.5482
715.1000	66.4054
715.0000	66.2653
714.9000	66.1221
714.8000	65.9882
714.7000	65.8549
714.6000	65.7229
714.5000	65.5928
714.4000	65.4704
714.3000	65.3549
714.2000	65.2425
714.1000	65.1323
714.0000	65.0259
713.9000	64.9258
713.8000	64.8296
713.7000	64.7408
713.6000	64.653
713.5000	64.5718
713.4000	64.4919
713.3000	64.4222
713.2000	64.3576
713.1000	64.3002
713.0000	64.2465
712.9000	64.2027
712.8000	64.1608
712.7000	64.1221
712.6000	64.0878
712.5000	64.06
712.4000	64.0392
712.3000	64.0243
712.2000	64.0155
712.1000	64.0087
712.0000	64.0095
711.9000	64.0109
711.8000	64.0287
711.7000	64.0488
711.6000	64.0703
711.5000	64.0974
711.4000	64.1356
711.3000	64.1729
711.2000	64.2174
711.1000	64.2715
711.0000	64.3303
710.9000	64.392
710.8000	64.4587
710.7000	64.5306
710.6000	64.6108
710.5000	64.6978
710.4000	64.7892
710.3000	64.8872
710.2000	64.9843
710.1000	65.0887
710.0000	65.1991
709.9000	65.317
709.8000	65.4349
709.7000	65.5587
709.6000	65.685
709.5000	65.8189
709.4000	65.9551
709.3000	66.0961
709.2000	66.2385
709.1000	66.3858
709.0000	66.5353
708.9000	66.6843
708.8000	66.8397
708.7000	66.9982
708.6000	67.1581
708.5000	67.3226
708.4000	67.4873
708.3000	67.6543
708.2000	67.8222
708.1000	67.9966
708.0000	68.1712
707.9000	68.3388
707.8000	68.5119
707.7000	68.6915
707.6000	68.8715
707.5000	69.0528
707.4000	69.2309
707.3000	69.4157
707.2000	69.5944
707.1000	69.7748
707.0000	69.9549
706.9000	70.1328
706.8000	70.3138
706.7000	70.4889
706.6000	70.6636
706.5000	70.8351
706.4000	71.0083
706.3000	71.1822
706.2000	71.3529
706.1000	71.5164
706.0000	71.6771
705.9000	71.8334
705.8000	71.9908
705.7000	72.1418
705.6000	72.2919
705.5000	72.4401
705.4000	72.584
705.3000	72.7219
705.2000	72.8558
705.1000	72.9858
705.0000	73.1058
704.9000	73.2271
704.8000	73.3405
704.7000	73.4466
704.6000	73.5493
704.5000	73.65
704.4000	73.7467
704.3000	73.8299
704.2000	73.9121
704.1000	73.987
704.0000	74.0566
703.9000	74.1124
703.8000	74.1641
703.7000	74.2151
703.6000	74.2531
703.5000	74.2873
703.4000	74.3204
703.3000	74.3396
703.2000	74.3527
703.1000	74.3641
703.0000	74.3647
702.9000	74.3529
702.8000	74.3408
702.7000	74.3258
702.6000	74.2959
702.5000	74.2684
702.4000	74.2253
702.3000	74.1824
702.2000	74.1313
702.1000	74.0718
702.0000	74.0078
701.9000	73.9354
701.8000	73.8599
701.7000	73.7772
701.6000	73.6882
701.5000	73.5957
701.4000	73.4968
701.3000	73.3936
701.2000	73.2837
701.1000	73.1677
701.0000	73.049
700.9000	72.9153
700.8000	72.7877
700.7000	72.6518
700.6000	72.5144
700.5000	72.3704
700.4000	72.2244
700.3000	72.0756
700.2000	71.9229
700.1000	71.7663
700.0000	71.606
699.9000	71.4428
699.8000	71.2761
699.7000	71.1121
699.6000	70.9413
699.5000	70.7705
699.4000	70.5974
699.3000	70.4303
699.2000	70.2594
699.1000	70.0897
699.0000	69.9165
698.9000	69.7445
698.8000	69.5713
698.7000	69.4016
698.6000	69.2322
698.5000	69.0638
698.4000	68.8961
698.3000	68.7301
698.2000	68.5672
698.1000	68.4018
698.0000	68.2427
697.9000	68.0855
697.8000	67.9294
697.7000	67.7773
697.6000	67.6272
697.5000	67.4772
697.4000	67.3343
697.3000	67.1927
697.2000	67.0529
697.1000	66.9199
697.0000	66.7866
696.9000	66.6565
696.8000	66.5314
696.7000	66.4087
696.6000	66.2915
696.5000	66.1798
696.4000	66.07
696.3000	65.9715
696.2000	65.8764
696.1000	65.7786
696.0000	65.6868
695.9000	65.5995
695.8000	65.5199
695.7000	65.4462
695.6000	65.3785
695.5000	65.3122
695.4000	65.2492
695.3000	65.1967
695.2000	65.1503
695.1000	65.1072
695.0000	65.0719
694.9000	65.0389
694.8000	65.0087
694.7000	64.98
694.6000	64.9615
694.5000	64.9513
694.4000	64.9455
694.3000	64.9482
694.2000	64.9535
694.1000	64.9614
694.0000	64.9748
693.9000	64.9953
693.8000	65.0241
693.7000	65.0557
693.6000	65.0923
693.5000	65.1362
693.4000	65.1788
693.3000	65.2312
693.2000	65.2921
693.1000	65.3563
693.0000	65.4246
692.9000	65.4958
692.8000	65.5716
692.7000	65.656
692.6000	65.7406
692.5000	65.8365
692.4000	65.9359
692.3000	66.0375
692.2000	66.1441
692.1000	66.2567
692.0000	66.3699
691.9000	66.4854
691.8000	66.6093
691.7000	66.7383
691.6000	66.8693
691.5000	67.004
691.4000	67.1422
691.3000	67.286
691.2000	67.4334
691.1000	67.5797
691.0000	67.7311
690.9000	67.881
690.8000	68.0377
690.7000	68.1942
690.6000	68.3567
690.5000	68.516
690.4000	68.6842
690.3000	68.8531
690.2000	69.0215
690.1000	69.1871
690.0000	69.3555
689.9000	69.5267
689.8000	69.6948
689.7000	69.8649
689.6000	70.0313
689.5000	70.1988
689.4000	70.3675
689.3000	70.5356
689.2000	70.7003
689.1000	70.8637
689.0000	71.026
688.9000	71.1901
688.8000	71.3456
688.7000	71.5003
688.6000	71.6552
688.5000	71.8088
688.4000	71.9589
688.3000	72.1025
688.2000	72.2446
688.1000	72.3818
688.0000	72.5184
687.9000	72.6492
687.8000	72.7736
687.7000	72.8952
687.6000	73.012
687.5000	73.1243
687.4000	73.2258
687.3000	73.3242
687.2000	73.4241
687.1000	73.516
687.0000	73.5976
686.9000	73.6739
686.8000	73.7439
686.7000	73.8124
686.6000	73.8726
686.5000	73.9247
686.4000	73.9728
686.3000	74.0185
686.2000	74.0532
686.1000	74.0812
686.0000	74.1029
685.9000	74.12
685.8000	74.1286
685.7000	74.1335
685.6000	74.1269
685.5000	74.1141
685.4000	74.0988
685.3000	74.0768
685.2000	74.044
685.1000	74.0034
685.0000	73.9579
684.9000	73.9078
684.8000	73.851
684.7000	73.7828
684.6000	73.7165
684.5000	73.6406
684.4000	73.5598
684.3000	73.4718
684.2000	73.3838
684.1000	73.2865
684.0000	73.1876
683.9000	73.0838
683.8000	72.9725
683.7000	72.8593
683.6000	72.7446
683.5000	72.6242
683.4000	72.5007
683.3000	72.3774
683.2000	72.2464
683.1000	72.1175
683.0000	71.9793
682.9000	71.8434
682.8000	71.706
682.7000	71.5658
682.6000	71.4237
682.5000	71.2766
682.4000	71.1278
682.3000	70.9794
682.2000	70.8323
682.1000	70.6816
682.0000	70.5326
681.9000	70.3844
681.8000	70.2351
681.7000	70.0815
681.6000	69.9326
681.5000	69.7807
681.4000	69.6305
681.3000	69.4845
681.2000	69.3336
681.1000	69.1939
681.0000	69.0523
680.9000	68.9163
680.8000	68.781
680.7000	68.6469
680.6000	68.5138
680.5000	68.3849
680.4000	68.2537
680.3000	68.1288
680.2000	68.0072
680.1000	67.8905
680.0000	67.7758
679.9000	67.6641
679.8000	67.5611
679.7000	67.4589
679.6000	67.3608
679.5000	67.2605
679.4000	67.1678
679.3000	67.0802
679.2000	66.9969
679.1000	66.9146
679.0000	66.8456
678.9000	66.7795
678.8000	66.7235
678.7000	66.6693
678.6000	66.6217
678.5000	66.5802
678.4000	66.5444
678.3000	66.5165
678.2000	66.4927
678.1000	66.4768
678.0000	66.4692
677.9000	66.4645
677.8000	66.4671
677.7000	66.4757
677.6000	66.4922
677.5000	66.5221
677.4000	66.549
677.3000	66.5847
677.2000	66.6253
677.1000	66.6738
677.0000	66.7271
676.9000	66.7883
676.8000	66.8528
676.7000	66.9225
676.6000	66.9957
676.5000	67.0745
676.4000	67.1602
676.3000	67.2573
676.2000	67.3605
676.1000	67.4634
676.0000	67.5698
675.9000	67.6821
675.8000	67.7993
675.7000	67.9212
675.6000	68.0488
675.5000	68.177
675.4000	68.3124
675.3000	68.4497
675.2000	68.5946
675.1000	68.744
675.0000	68.8966
674.9000	69.0522
674.8000	69.214
674.7000	69.3757
674.6000	69.5346
674.5000	69.7
674.4000	69.8694
674.3000	70.0359
674.2000	70.2067
674.1000	70.3793
674.0000	70.5479
673.9000	70.7232
673.8000	70.9003
673.7000	71.0716
673.6000	71.247
673.5000	71.417
673.4000	71.5939
673.3000	71.7681
673.2000	71.9363
673.1000	72.1023
673.0000	72.2677
672.9000	72.4357
672.8000	72.5963
672.7000	72.7564
672.6000	72.9134
672.5000	73.0652
672.4000	73.2175
672.3000	73.365
672.2000	73.5059
672.1000	73.6487
672.0000	73.7782
671.9000	73.9078
671.8000	74.0326
671.7000	74.1514
671.6000	74.2658
671.5000	74.373
671.4000	74.4774
671.3000	74.5729
671.2000	74.6652
671.1000	74.752
671.0000	74.8334
670.9000	74.9059
670.8000	74.9757
670.7000	75.0367
670.6000	75.0905
670.5000	75.1354
670.4000	75.1784
670.3000	75.2136
670.2000	75.2397
670.1000	75.2564
670.0000	75.2704
669.9000	75.2775
669.8000	75.2758
669.7000	75.2678
669.6000	75.2543
669.5000	75.2343
669.4000	75.2042
669.3000	75.1707
669.2000	75.1276
669.1000	75.0764
669.0000	75.0234
668.9000	74.9662
668.8000	74.898
668.7000	74.8291
668.6000	74.7493
668.5000	74.6662
668.4000	74.5728
668.3000	74.4806
668.2000	74.3802
668.1000	74.2733
668.0000	74.1622
667.9000	74.0469
667.8000	73.9282
667.7000	73.8058
667.6000	73.6793
667.5000	73.5488
667.4000	73.4105
667.3000	73.2686
667.2000	73.1268
667.1000	72.9763
667.0000	72.828
666.9000	72.6768
666.8000	72.5249
666.7000	72.37
666.6000	72.2176
666.5000	72.0625
666.4000	71.9049
666.3000	71.746
666.2000	71.5875
666.1000	71.4264
666.0000	71.2639
665.9000	71.1051
665.8000	70.9477
665.7000	70.7886
665.6000	70.6323
665.5000	70.4807
665.4000	70.3273
665.3000	70.1737
665.2000	70.023
665.1000	69.8783
665.0000	69.7325
664.9000	69.5916
664.8000	69.452
664.7000	69.3164
664.6000	69.1863
664.5000	69.0595
664.4000	68.9365
664.3000	68.8174
664.2000	68.7054
664.1000	68.5975
664.0000	68.4944
663.9000	68.3948
663.8000	68.3006
663.7000	68.213
663.6000	68.1318
663.5000	68.049
663.4000	67.9733
663.3000	67.9062
663.2000	67.847
663.1000	67.7911
663.0000	67.74
662.9000	67.6978
662.8000	67.6628
662.7000	67.6288
662.6000	67.6075
662.5000	67.5924
662.4000	67.5809
662.3000	67.5773
662.2000	67.5793
662.1000	67.5923
662.0000	67.6081
661.9000	67.6307
661.8000	67.659
661.7000	67.6912
661.6000	67.7317
661.5000	67.7828
661.4000	67.838
661.3000	67.8991
661.2000	67.9682
661.1000	68.0455
661.0000	68.1176
660.9000	68.2025
660.8000	68.2932
660.7000	68.3893
660.6000	68.4895
660.5000	68.5921
660.4000	68.7056
660.3000	68.8222
660.2000	68.9487
660.1000	69.077
660.0000	69.2068
659.9000	69.3414
659.8000	69.4827
659.7000	69.6221
659.6000	69.7658
659.5000	69.9149
659.4000	70.0723
659.3000	70.2282
659.2000	70.3863
659.1000	70.5469
659.0000	70.71
658.9000	70.8784
658.8000	71.0424
658.7000	71.2076
658.6000	71.3703
658.5000	71.5404
658.4000	71.712
658.3000	71.8792
658.2000	72.0441
658.1000	72.2134
658.0000	72.3819
657.9000	72.5469
657.8000	72.7072
657.7000	72.8654
657.6000	73.0235
657.5000	73.1803
657.4000	73.3365
657.3000	73.4869
657.2000	73.6346
657.1000	73.7848
657.0000	73.9282
656.9000	74.0642
656.8000	74.195
656.7000	74.3256
656.6000	74.4512
656.5000	74.5732
656.4000	74.6895
656.3000	74.8025
656.2000	74.9079
656.1000	75.0087
656.0000	75.1042
655.9000	75.1943
655.8000	75.2721
655.7000	75.3476
655.6000	75.4154
655.5000	75.4764
655.4000	75.5311
655.3000	75.5801
655.2000	75.6218
655.1000	75.6565
655.0000	75.687
654.9000	75.71
654.8000	75.7222
654.7000	75.7272
654.6000	75.7264
654.5000	75.7168
654.4000	75.701
654.3000	75.674
654.2000	75.6472
654.1000	75.6112
654.0000	75.5702
653.9000	75.5174
653.8000	75.4608
653.7000	75.3973
653.6000	75.3268
653.5000	75.2514
653.4000	75.1634
653.3000	75.0705
653.2000	74.9716
653.1000	74.8712
653.0000	74.7674
652.9000	74.6581
652.8000	74.5406
652.7000	74.4209
652.6000	74.2977
652.5000	74.1666
652.4000	74.0342
652.3000	73.8989
652.2000	73.7598
652.1000	73.6171
652.0000	73.471
651.9000	73.32
651.8000	73.1705
651.7000	73.0158
651.6000	72.8622
651.5000	72.7055
651.4000	72.5501
651.3000	72.3916
651.2000	72.2384
651.1000	72.0823
651.0000	71.9249
650.9000	71.7669
650.8000	71.608
650.7000	71.4525
650.6000	71.2998
650.5000	71.148
650.4000	71.0011
650.3000	70.8547
650.2000	70.7113
650.1000	70.567
650.0000	70.4293
649.9000	70.2941
649.8000	70.1597
649.7000	70.0303
649.6000	69.9045
649.5000	69.781
649.4000	69.6644
649.3000	69.5529
649.2000	69.4458
649.1000	69.344
649.0000	69.2476
648.9000	69.1545
648.8000	69.0654
648.7000	68.9838
648.6000	68.9078
648.5000	68.8456
648.4000	68.7856
648.3000	68.7291
648.2000	68.6808
648.1000	68.6373
648.0000	68.5979
647.9000	68.5696
647.8000	68.5463
647.7000	68.5306
647.6000	68.5224
647.5000	68.5188
647.4000	68.5234
647.3000	68.5343
647.2000	68.5552
647.1000	68.5779
647.0000	68.6123
646.9000	68.6503
646.8000	68.6911
646.7000	68.7404
646.6000	68.7924
646.5000	68.8546
646.4000	68.9233
646.3000	68.9984
646.2000	69.079
646.1000	69.1667
646.0000	69.2588
645.9000	69.3575
645.8000	69.4582
645.7000	69.5668
645.6000	69.6796
645.5000	69.7983
645.4000	69.9183
645.3000	70.0419
645.2000	70.1726
645.1000	70.3088
645.0000	70.4493
644.9000	70.5909
644.8000	70.7393
644.7000	70.8866
644.6000	71.0348
644.5000	71.1856
644.4000	71.3387
644.3000	71.4958
644.2000	71.6547
644.1000	71.8141
644.0000	71.9724
643.9000	72.1328
643.8000	72.2921
643.7000	72.4512
643.6000	72.6142
643.5000	72.7752
643.4000	72.9351
643.3000	73.0962
643.2000	73.2495
643.1000	73.4039
643.0000	73.5576
642.9000	73.7098
642.8000	73.858
642.7000	74.003
642.6000	74.1432
642.5000	74.2816
642.4000	74.4154
642.3000	74.5469
642.2000	74.671
642.1000	74.7926
642.0000	74.9127
641.9000	75.0211
641.8000	75.125
641.7000	75.2204
641.6000	75.3158
641.5000	75.4007
641.4000	75.4793
641.3000	75.5506
641.2000	75.6219
641.1000	75.6787
641.0000	75.7315
640.9000	75.7738
640.8000	75.8123
640.7000	75.8432
640.6000	75.871
640.5000	75.8851
640.4000	75.8872
640.3000	75.888
640.2000	75.8838
640.1000	75.8692
640.0000	75.8471
639.9000	75.8202
639.8000	75.7867
639.7000	75.7462
639.6000	75.6936
639.5000	75.6397
639.4000	75.5791
639.3000	75.5123
639.2000	75.4358
639.1000	75.3543
639.0000	75.2659
638.9000	75.1725
638.8000	75.0753
638.7000	74.9724
638.6000	74.8603
638.5000	74.7493
638.4000	74.6291
638.3000	74.5111
638.2000	74.3865
638.1000	74.2566
638.0000	74.1245
637.9000	73.985
637.8000	73.8444
637.7000	73.7013
637.6000	73.5583
637.5000	73.4105
637.4000	73.2606
637.3000	73.1119
637.2000	72.9619
637.1000	72.8108
637.0000	72.6599
636.9000	72.5072
636.8000	72.3555
636.7000	72.202
636.6000	72.0477
636.5000	71.8965
636.4000	71.7451
636.3000	71.5988
636.2000	71.4519
636.1000	71.3082
636.0000	71.1654
635.9000	71.0278
635.8000	70.8929
635.7000	70.7643
635.6000	70.6357
635.5000	70.5103
635.4000	70.3884
635.3000	70.2747
635.2000	70.167
635.1000	70.0592
635.0000	69.9598
634.9000	69.8647
634.8000	69.7798
634.7000	69.7008
634.6000	69.6222
634.5000	69.5482
634.4000	69.485
634.3000	69.426
634.2000	69.3727
634.1000	69.3212
634.0000	69.2791
633.9000	69.2451
633.8000	69.2211
633.7000	69.1961
633.6000	69.1783
633.5000	69.1729
633.4000	69.1737
633.3000	69.1807
633.2000	69.1899
633.1000	69.2064
633.0000	69.2365
632.9000	69.2729
632.8000	69.3118
632.7000	69.3577
632.6000	69.4132
632.5000	69.4804
632.4000	69.5454
632.3000	69.6189
632.2000	69.6961
632.1000	69.7826
632.0000	69.877
631.9000	69.9708
631.8000	70.0701
631.7000	70.1764
631.6000	70.2898
631.5000	70.4035
631.4000	70.5222
631.3000	70.6454
631.2000	70.7739
631.1000	70.906
631.0000	71.0384
630.9000	71.176
630.8000	71.3195
630.7000	71.4625
630.6000	71.612
630.5000	71.7647
630.4000	71.9125
630.3000	72.0645
630.2000	72.2183
630.1000	72.3718
630.0000	72.5261
629.9000	72.6838
629.8000	72.8386
629.7000	72.9929
629.6000	73.1437
629.5000	73.2989
629.4000	73.4503
629.3000	73.5953
629.2000	73.7469
629.1000	73.8932
629.0000	74.0334
628.9000	74.1708
628.8000	74.3052
628.7000	74.437
628.6000	74.5647
628.5000	74.6884
628.4000	74.8034
628.3000	74.9172
628.2000	75.0262
628.1000	75.1336
628.0000	75.2332
627.9000	75.3207
627.8000	75.4042
627.7000	75.4864
627.6000	75.5543
627.5000	75.6201
627.4000	75.6787
627.3000	75.7299
627.2000	75.7773
627.1000	75.8125
627.0000	75.8425
626.9000	75.8627
626.8000	75.8792
626.7000	75.8854
626.6000	75.8797
626.5000	75.8675
626.4000	75.8537
626.3000	75.835
626.2000	75.8114
626.1000	75.7747
626.0000	75.7333
625.9000	75.6795
625.8000	75.6212
625.7000	75.5594
625.6000	75.4859
625.5000	75.4103
625.4000	75.3262
625.3000	75.2375
625.2000	75.1453
625.1000	75.0434
625.0000	74.9417
624.9000	74.8304
624.8000	74.7147
624.7000	74.5947
624.6000	74.4655
624.5000	74.3352
624.4000	74.1981
624.3000	74.0615
624.2000	73.9212
624.1000	73.7775
624.0000	73.6331
623.9000	73.4867
623.8000	73.3366
623.7000	73.1883
623.6000	73.0315
623.5000	72.8778
623.4000	72.725
623.3000	72.5733
623.2000	72.4203
623.1000	72.2627
623.0000	72.1082
622.9000	71.9558
622.8000	71.8067
622.7000	71.66
622.6000	71.5116
622.5000	71.3679
622.4000	71.2249
622.3000	71.0891
622.2000	70.9583
622.1000	70.8251
622.0000	70.7018
621.9000	70.5819
621.8000	70.4653
621.7000	70.3553
621.6000	70.2459
621.5000	70.1469
621.4000	70.053
621.3000	69.965
621.2000	69.8834
621.1000	69.8065
621.0000	69.736
620.9000	69.6702
620.8000	69.613
620.7000	69.5603
620.6000	69.5154
620.5000	69.4768
620.4000	69.4456
620.3000	69.4191
620.2000	69.4007
620.1000	69.388
620.0000	69.3832
619.9000	69.3864
619.8000	69.3962
619.7000	69.4141
619.6000	69.4344
619.5000	69.4641
619.4000	69.5053
619.3000	69.5503
619.2000	69.6044
619.1000	69.6602
619.0000	69.7217
618.9000	69.7929
618.8000	69.8685
618.7000	69.9549
618.6000	70.0419
618.5000	70.1332
618.4000	70.2341
618.3000	70.3412
618.2000	70.4537
618.1000	70.5665
618.0000	70.6894
617.9000	70.814
617.8000	70.9404
617.7000	71.0719
617.6000	71.2048
617.5000	71.3448
617.4000	71.4871
617.3000	71.6256
617.2000	71.7676
617.1000	71.9113
617.0000	72.0625
616.9000	72.2164
616.8000	72.3681
616.7000	72.5158
616.6000	72.6664
616.5000	72.819
616.4000	72.9695
616.3000	73.12
616.2000	73.265
616.1000	73.4063
616.0000	73.5478
615.9000	73.6878
615.8000	73.826
615.7000	73.9634
615.6000	74.0993
615.5000	74.2277
615.4000	74.3464
615.3000	74.4632
615.2000	74.5775
615.1000	74.6858
615.0000	74.789
614.9000	74.8838
614.8000	74.9736
614.7000	75.0559
614.6000	75.1369
614.5000	75.2112
614.4000	75.2789
614.3000	75.3363
614.2000	75.3858
614.1000	75.4305
614.0000	75.4671
613.9000	75.495
613.8000	75.5163
613.7000	75.5287
613.6000	75.5298
613.5000	75.5287
613.4000	75.5207
613.3000	75.5023
613.2000	75.4751
613.1000	75.4403
613.0000	75.3966
612.9000	75.3488
612.8000	75.292
612.7000	75.227
612.6000	75.1561
612.5000	75.0797
612.4000	74.9911
612.3000	74.8993
612.2000	74.8062
612.1000	74.703
612.0000	74.5982
611.9000	74.4809
611.8000	74.3547
611.7000	74.2285
611.6000	74.0969
611.5000	73.9648
611.4000	73.8287
611.3000	73.6875
611.2000	73.5439
611.1000	73.3951
611.0000	73.247
610.9000	73.0969
610.8000	72.9467
610.7000	72.7928
610.6000	72.6362
610.5000	72.4803
610.4000	72.3221
610.3000	72.1677
610.2000	72.0118
610.1000	71.8583
610.0000	71.7052
609.9000	71.5536
609.8000	71.4041
609.7000	71.2546
609.6000	71.11
609.5000	70.9699
609.4000	70.8292
609.3000	70.6862
609.2000	70.5564
609.1000	70.4291
609.0000	70.3039
608.9000	70.1842
608.8000	70.0711
608.7000	69.9621
608.6000	69.861
608.5000	69.7618
608.4000	69.6733
608.3000	69.5882
608.2000	69.5084
608.1000	69.439
608.0000	69.3763
607.9000	69.319
607.8000	69.2674
607.7000	69.2315
607.6000	69.1932
607.5000	69.1637
607.4000	69.1415
607.3000	69.1307
607.2000	69.1269
607.1000	69.1288
607.0000	69.1401
606.9000	69.1588
606.8000	69.1845
606.7000	69.2163
606.6000	69.2571
606.5000	69.3049
606.4000	69.3555
606.3000	69.4147
606.2000	69.4834
606.1000	69.5576
606.0000	69.6389
605.9000	69.7292
605.8000	69.8261
605.7000	69.9218
605.6000	70.0246
605.5000	70.1358
605.4000	70.2531
605.3000	70.3721
605.2000	70.4974
605.1000	70.6261
605.0000	70.7573
604.9000	70.8915
604.8000	71.0315
604.7000	71.1734
604.6000	71.3163
604.5000	71.4561
604.4000	71.6016
604.3000	71.7482
604.2000	71.8975
604.1000	72.0492
604.0000	72.1992
603.9000	72.3453
603.8000	72.4869
603.7000	72.6343
603.6000	72.7777
603.5000	72.9178
603.4000	73.0576
603.3000	73.1919
603.2000	73.3205
603.1000	73.4517
603.0000	73.5776
602.9000	73.7037
602.8000	73.8232
602.7000	73.9362
602.6000	74.0415
602.5000	74.1409
602.4000	74.2342
602.3000	74.327
602.2000	74.4116
602.1000	74.4874
602.0000	74.5536
601.9000	74.6182
601.8000	74.6702
601.7000	74.7191
601.6000	74.7623
601.5000	74.7944
601.4000	74.8176
601.3000	74.8328
601.2000	74.8411
601.1000	74.8409
601.0000	74.831
600.9000	74.815
600.8000	74.7921
600.7000	74.7559
600.6000	74.7148
600.5000	74.6662
600.4000	74.6051
600.3000	74.5379
600.2000	74.4694
600.1000	74.3924
600.0000	74.4545
599.9000	74.3627
599.8000	74.2639
599.7000	74.1625
599.6000	74.0498
599.5000	73.9287
599.4000	73.804
599.3000	73.6699
599.2000	73.5369
599.1000	73.3976
599.0000	73.2548
598.9000	73.1106
598.8000	72.9581
598.7000	72.8072
598.6000	72.6445
598.5000	72.4844
598.4000	72.3216
598.3000	72.1621
598.2000	71.9991
598.1000	71.8344
598.0000	71.6755
597.9000	71.5156
597.8000	71.3549
597.7000	71.1997
597.6000	71.0437
597.5000	70.8845
597.4000	70.7313
597.3000	70.5801
597.2000	70.4324
597.1000	70.2887
597.0000	70.1552
596.9000	70.0236
596.8000	69.9
596.7000	69.7778
596.6000	69.6613
596.5000	69.5486
596.4000	69.4446
596.3000	69.3412
596.2000	69.2529
596.1000	69.1655
596.0000	69.0888
595.9000	69.0221
595.8000	68.9582
595.7000	68.904
595.6000	68.8605
595.5000	68.8191
595.4000	68.7821
595.3000	68.7612
595.2000	68.7421
595.1000	68.7317
595.0000	68.7294
594.9000	68.7408
594.8000	68.7544
594.7000	68.784
594.6000	68.8114
594.5000	68.8489
594.4000	68.8938
594.3000	68.9456
594.2000	69.0088
594.1000	69.0783
594.0000	69.1557
593.9000	69.2391
593.8000	69.3327
593.7000	69.4279
593.6000	69.5291
593.5000	69.6443
593.4000	69.7656
593.3000	69.8843
593.2000	70.0131
593.1000	70.1436
593.0000	70.2772
592.9000	70.4172
592.8000	70.5572
592.7000	70.7031
592.6000	70.8476
592.5000	70.9968
592.4000	71.1443
592.3000	71.2971
592.2000	71.4485
592.1000	71.6
592.0000	71.7566
591.9000	71.9025
591.8000	72.0464
591.7000	72.1933
591.6000	72.3329
591.5000	72.4712
591.4000	72.6128
591.3000	72.7497
591.2000	72.8852
591.1000	73.0125
591.0000	73.1345
590.9000	73.2547
590.8000	73.3658
590.7000	73.4727
590.6000	73.5735
590.5000	73.6665
590.4000	73.7505
590.3000	73.8294
590.2000	73.906
590.1000	73.9681
590.0000	74.0263
589.9000	74.079
589.8000	74.1226
589.7000	74.1563
589.6000	74.179
589.5000	74.1983
589.4000	74.2088
589.3000	74.2047
589.2000	74.194
589.1000	74.178
589.0000	74.1535
588.9000	74.1206
588.8000	74.0767
588.7000	74.0274
588.6000	73.9683
588.5000	73.9071
588.4000	73.8346
588.3000	73.7525
588.2000	73.6616
588.1000	73.5657
588.0000	73.4638
587.9000	73.3492
587.8000	73.235
587.7000	73.113
587.6000	72.9897
587.5000	72.8562
587.4000	72.7191
587.3000	72.5769
587.2000	72.4351
587.1000	72.2849
587.0000	72.1284
586.9000	71.9692
586.8000	71.8111
586.7000	71.6519
586.6000	71.4865
586.5000	71.3203
586.4000	71.1553
586.3000	70.9927
586.2000	70.8279
586.1000	70.6653
586.0000	70.5019
585.9000	70.3384
585.8000	70.1767
585.7000	70.0163
585.6000	69.8587
585.5000	69.7088
585.4000	69.5639
585.3000	69.4182
585.2000	69.2781
585.1000	69.1419
585.0000	69.0141
584.9000	68.8884
584.8000	68.7672
584.7000	68.6605
584.6000	68.5561
584.5000	68.4586
584.4000	68.3655
584.3000	68.2792
584.2000	68.2059
584.1000	68.1432
584.0000	68.0869
583.9000	68.0367
583.8000	67.9924
583.7000	67.961
583.6000	67.9352
583.5000	67.9162
583.4000	67.9084
583.3000	67.915
583.2000	67.9277
583.1000	67.9435
583.0000	67.9712
582.9000	68.007
582.8000	68.052
582.7000	68.1071
582.6000	68.1659
582.5000	68.2333
582.4000	68.3042
582.3000	68.3849
582.2000	68.4768
582.1000	68.5708
582.0000	68.6744
581.9000	68.7871
581.8000	68.9014
581.7000	69.0195
581.6000	69.1444
581.5000	69.2731
581.4000	69.4057
581.3000	69.5416
581.2000	69.6829
581.1000	69.8271
581.0000	69.9779
580.9000	70.1237
580.8000	70.2735
580.7000	70.4276
580.6000	70.5771
580.5000	70.7368
580.4000	70.8862
580.3000	71.0366
580.2000	71.188
580.1000	71.3349
580.0000	71.4801
579.9000	71.6239
579.8000	71.7628
579.7000	71.9014
579.6000	72.0298
579.5000	72.1608
579.4000	72.273
579.3000	72.3913
579.2000	72.5021
579.1000	72.6051
579.0000	72.7034
578.9000	72.7846
578.8000	72.8693
578.7000	72.944
578.6000	73.0094
578.5000	73.0676
578.4000	73.1194
578.3000	73.1604
578.2000	73.193
578.1000	73.2125
578.0000	73.231
577.9000	73.2319
577.8000	73.2345
577.7000	73.2238
577.6000	73.2042
577.5000	73.174
577.4000	73.1347
577.3000	73.0888
577.2000	73.0366
577.1000	72.9724
577.0000	72.9024
576.9000	72.8224
576.8000	72.7353
576.7000	72.6405
576.6000	72.539
576.5000	72.4333
576.4000	72.3172
576.3000	72.1982
576.2000	72.0725
576.1000	71.9383
576.0000	71.8016
575.9000	71.6566
575.8000	71.5107
575.7000	71.3636
575.6000	71.2077
575.5000	71.048
575.4000	70.8869
575.3000	70.7263
575.2000	70.5636
575.1000	70.3969
575.0000	70.2347
574.9000	70.0684
574.8000	69.906
574.7000	69.7443
574.6000	69.579
574.5000	69.4159
574.4000	69.2574
574.3000	69.1029
574.2000	68.9489
574.1000	68.7971
574.0000	68.6494
573.9000	68.5112
573.8000	68.3747
573.7000	68.2422
573.6000	68.1113
573.5000	67.9937
573.4000	67.8781
573.3000	67.7716
573.2000	67.6683
573.1000	67.575
573.0000	67.4922
572.9000	67.4148
572.8000	67.3438
572.7000	67.2791
572.6000	67.2267
572.5000	67.1852
572.4000	67.1521
572.3000	67.1264
572.2000	67.1129
572.1000	67.1093
572.0000	67.1182
571.9000	67.1307
571.8000	67.1555
571.7000	67.1859
571.6000	67.2282
571.5000	67.2775
571.4000	67.3356
571.3000	67.4061
571.2000	67.4853
571.1000	67.5709
571.0000	67.6618
570.9000	67.7592
570.8000	67.8637
570.7000	67.9761
570.6000	68.0929
570.5000	68.2158
570.4000	68.3415
570.3000	68.4776
570.2000	68.6121
570.1000	68.7527
570.0000	68.8975
569.9000	69.0411
569.8000	69.1913
569.7000	69.3394
569.6000	69.487
569.5000	69.6402
569.4000	69.7971
569.3000	69.951
569.2000	70.1038
569.1000	70.2521
569.0000	70.4007
568.9000	70.5441
568.8000	70.6907
568.7000	70.8257
568.6000	70.9624
568.5000	71.0951
568.4000	71.2191
568.3000	71.338
568.2000	71.4497
568.1000	71.559
568.0000	71.6618
567.9000	71.7563
567.8000	71.8411
567.7000	71.9178
567.6000	71.9916
567.5000	72.0569
567.4000	72.1096
567.3000	72.1579
567.2000	72.191
567.1000	72.2179
567.0000	72.2338
566.9000	72.238
566.8000	72.2374
566.7000	72.2305
566.6000	72.21
566.5000	72.1799
566.4000	72.1395
566.3000	72.0922
566.2000	72.0361
566.1000	71.9733
566.0000	71.8959
565.9000	71.8105
565.8000	71.7188
565.7000	71.6172
565.6000	71.5096
565.5000	71.3992
565.4000	71.2767
565.3000	71.1503
565.2000	71.0177
565.1000	70.8757
565.0000	70.7332
564.9000	70.5842
564.8000	70.4337
564.7000	70.2757
564.6000	70.116
564.5000	69.952
564.4000	69.7833
564.3000	69.6164
564.2000	69.4466
564.1000	69.281
564.0000	69.1125
563.9000	68.941
563.8000	68.7777
563.7000	68.6138
563.6000	68.4496
563.5000	68.2887
563.4000	68.1243
563.3000	67.9715
563.2000	67.8206
563.1000	67.6755
563.0000	67.5297
562.9000	67.3908
562.8000	67.2673
562.7000	67.1436
562.6000	67.0298
562.5000	66.9174
562.4000	66.8171
562.3000	66.7262
562.2000	66.6362
562.1000	66.5613
562.0000	66.4898
561.9000	66.4338
561.8000	66.3908
561.7000	66.3509
561.6000	66.3194
561.5000	66.3005
561.4000	66.2917
561.3000	66.2933
561.2000	66.2999
561.1000	66.3153
561.0000	66.3442
560.9000	66.3837
560.8000	66.4288
560.7000	66.4807
560.6000	66.5455
560.5000	66.6156
560.4000	66.699
560.3000	66.7882
560.2000	66.8831
560.1000	66.9864
560.0000	67.0972
559.9000	67.2114
559.8000	67.3332
559.7000	67.4589
559.6000	67.5972
559.5000	67.7398
559.4000	67.8808
559.3000	68.0254
559.2000	68.1749
559.1000	68.3302
559.0000	68.4864
558.9000	68.6425
558.8000	68.7992
558.7000	68.9544
558.6000	69.1121
558.5000	69.2629
558.4000	69.4151
558.3000	69.5668
558.2000	69.7153
558.1000	69.8626
558.0000	69.9944
557.9000	70.1303
557.8000	70.2598
557.7000	70.3841
557.6000	70.5031
557.5000	70.6171
557.4000	70.7197
557.3000	70.8163
557.2000	70.9045
557.1000	70.9839
557.0000	71.0533
556.9000	71.1171
556.8000	71.1701
556.7000	71.2159
556.6000	71.2507
556.5000	71.2758
556.4000	71.2931
556.3000	71.2931
556.2000	71.2881
556.1000	71.2719
556.0000	71.2473
555.9000	71.2085
555.8000	71.1655
555.7000	71.1106
555.6000	71.0486
555.5000	70.9756
555.4000	70.8948
555.3000	70.8031
555.2000	70.704
555.1000	70.5977
555.0000	70.4839
554.9000	70.3641
554.8000	70.2316
554.7000	70.0991
554.6000	69.9612
554.5000	69.8153
554.4000	69.6641
554.3000	69.5083
554.2000	69.35
554.1000	69.1883
554.0000	69.0211
553.9000	68.854
553.8000	68.6862
553.7000	68.5193
553.6000	68.3518
553.5000	68.1827
553.4000	68.0152
553.3000	67.846
553.2000	67.6868
553.1000	67.5266
553.0000	67.3682
552.9000	67.2188
552.8000	67.0683
552.7000	66.924
552.6000	66.7875
552.5000	66.6536
552.4000	66.5304
552.3000	66.4117
552.2000	66.2976
552.1000	66.1955
552.0000	66.1011
551.9000	66.0171
551.8000	65.9408
551.7000	65.8719
551.6000	65.815
551.5000	65.769
551.4000	65.7313
551.3000	65.7011
551.2000	65.6839
551.1000	65.6793
551.0000	65.6829
550.9000	65.7009
550.8000	65.727
550.7000	65.7635
550.6000	65.8124
550.5000	65.8665
550.4000	65.9297
550.3000	66.0027
550.2000	66.0864
550.1000	66.1827
550.0000	66.2821
549.9000	66.3896
549.8000	66.5049
549.7000	66.6264
549.6000	66.756
549.5000	66.8898
549.4000	67.0245
549.3000	67.1674
549.2000	67.3119
549.1000	67.4632
549.0000	67.6151
548.9000	67.7712
548.8000	67.93
548.7000	68.0833
548.6000	68.2409
548.5000	68.3961
548.4000	68.5505
548.3000	68.7036
548.2000	68.8535
548.1000	69.0018
548.0000	69.1444
547.9000	69.2806
547.8000	69.4187
547.7000	69.5453
547.6000	69.6674
547.5000	69.7811
547.4000	69.891
547.3000	69.9956
547.2000	70.0854
547.1000	70.1736
547.0000	70.2491
546.9000	70.3169
546.8000	70.3747
546.7000	70.4208
546.6000	70.4613
546.5000	70.4931
546.4000	70.5128
546.3000	70.5216
546.2000	70.5182
546.1000	70.5121
546.0000	70.4944
545.9000	70.4648
545.8000	70.4233
545.7000	70.3706
545.6000	70.3139
545.5000	70.2419
545.4000	70.1635
545.3000	70.0734
545.2000	69.9804
545.1000	69.8786
545.0000	69.7641
544.9000	69.6436
544.8000	69.519
544.7000	69.3873
544.6000	69.2499
544.5000	69.0991
544.4000	68.9524
544.3000	68.8029
544.2000	68.6469
544.1000	68.4881
544.0000	68.3249
543.9000	68.1631
543.8000	67.9975
543.7000	67.835
543.6000	67.6694
543.5000	67.5059
543.4000	67.3458
543.3000	67.1851
543.2000	67.0293
543.1000	66.8776
543.0000	66.7299
542.9000	66.5906
542.8000	66.4481
542.7000	66.3134
542.6000	66.1862
542.5000	66.066
542.4000	65.9556
542.3000	65.8517
542.2000	65.7564
542.1000	65.6694
542.0000	65.5897
541.9000	65.5213
541.8000	65.4588
541.7000	65.4076
541.6000	65.3643
541.5000	65.3354
541.4000	65.3133
541.3000	65.3017
541.2000	65.301
541.1000	65.3103
541.0000	65.3289
540.9000	65.3624
540.8000	65.4021
540.7000	65.4511
540.6000	65.513
540.5000	65.5829
540.4000	65.666
540.3000	65.7504
540.2000	65.8499
540.1000	65.9528
540.0000	66.0626
539.9000	66.1812
539.8000	66.3063
539.7000	66.4358
539.6000	66.5713
539.5000	66.7108
539.4000	66.8559
539.3000	67.0014
539.2000	67.1511
539.1000	67.3058
539.0000	67.4557
538.9000	67.6041
538.8000	67.755
538.7000	67.9093
538.6000	68.0573
538.5000	68.2079
538.4000	68.3586
538.3000	68.5004
538.2000	68.64
538.1000	68.7764
538.0000	68.9081
537.9000	69.0326
537.8000	69.1485
537.7000	69.2567
537.6000	69.3603
537.5000	69.4542
537.4000	69.5432
537.3000	69.6257
537.2000	69.6984
537.1000	69.76
537.0000	69.8128
536.9000	69.8549
536.8000	69.8834
536.7000	69.9031
536.6000	69.9152
536.5000	69.9173
536.4000	69.9103
536.3000	69.8888
536.2000	69.8651
536.1000	69.8294
536.0000	69.7823
535.9000	69.722
535.8000	69.655
535.7000	69.5807
535.6000	69.4931
535.5000	69.4
535.4000	69.3023
535.3000	69.1957
535.2000	69.085
535.1000	68.9641
535.0000	68.8382
534.9000	68.7046
534.8000	68.567
534.7000	68.4321
534.6000	68.2871
534.5000	68.1375
534.4000	67.9873
534.3000	67.8409
534.2000	67.6879
534.1000	67.5366
534.0000	67.3835
533.9000	67.2322
533.8000	67.0796
533.7000	66.9343
533.6000	66.7889
533.5000	66.6523
533.4000	66.5171
533.3000	66.3841
533.2000	66.2552
533.1000	66.1333
533.0000	66.0174
532.9000	65.913
532.8000	65.8146
532.7000	65.7199
532.6000	65.6389
532.5000	65.5618
532.4000	65.4968
532.3000	65.4413
532.2000	65.3972
532.1000	65.3565
532.0000	65.3266
531.9000	65.3058
531.8000	65.2952
531.7000	65.3034
531.6000	65.3195
531.5000	65.3446
531.4000	65.3789
531.3000	65.4214
531.2000	65.4762
531.1000	65.5392
531.0000	65.6114
530.9000	65.6961
530.8000	65.7853
530.7000	65.8854
530.6000	65.9919
530.5000	66.1054
530.4000	66.2291
530.3000	66.3593
530.2000	66.4917
530.1000	66.6251
530.0000	66.7653
529.9000	66.9082
529.8000	67.0532
529.7000	67.2032
529.6000	67.3492
529.5000	67.4973
529.4000	67.6478
529.3000	67.7927
529.2000	67.9408
529.1000	68.0792
529.0000	68.2191
528.9000	68.3597
528.8000	68.4943
528.7000	68.6208
528.6000	68.7439
528.5000	68.8617
528.4000	68.9739
528.3000	69.0767
528.2000	69.1781
528.1000	69.2677
528.0000	69.353
527.9000	69.432
527.8000	69.4936
527.7000	69.551
527.6000	69.5951
527.5000	69.6373
527.4000	69.6645
527.3000	69.6809
527.2000	69.6874
527.1000	69.6864
527.0000	69.6758
526.9000	69.6531
526.8000	69.6207
526.7000	69.5818
526.6000	69.529
526.5000	69.4689
526.4000	69.3984
526.3000	69.3204
526.2000	69.2392
526.1000	69.1478
526.0000	69.0515
525.9000	68.9481
525.8000	68.8382
525.7000	68.7221
525.6000	68.5989
525.5000	68.471
525.4000	68.3448
525.3000	68.2137
525.2000	68.0757
525.1000	67.9381
525.0000	67.7975
524.9000	67.6567
524.8000	67.5168
524.7000	67.3748
524.6000	67.2314
524.5000	67.0929
524.4000	66.9582
524.3000	66.8227
524.2000	66.6931
524.1000	66.5637
524.0000	66.446
523.9000	66.3341
523.8000	66.2217
523.7000	66.1193
523.6000	66.0297
523.5000	65.9426
523.4000	65.865
523.3000	65.7955
523.2000	65.7363
523.1000	65.6889
523.0000	65.6496
522.9000	65.618
522.8000	65.598
522.7000	65.5883
522.6000	65.5879
522.5000	65.6046
522.4000	65.6216
522.3000	65.6497
522.2000	65.6932
522.1000	65.7424
522.0000	65.7984
521.9000	65.8683
521.8000	65.9473
521.7000	66.0335
521.6000	66.1271
521.5000	66.2288
521.4000	66.3404
521.3000	66.4571
521.2000	66.5763
521.1000	66.7025
521.0000	66.8358
520.9000	66.9704
520.8000	67.1085
520.7000	67.2512
520.6000	67.3915
520.5000	67.5408
520.4000	67.6874
520.3000	67.827
520.2000	67.97
520.1000	68.1114
520.0000	68.3948
519.9000	68.5317
519.8000	68.6578
519.7000	68.7877
519.6000	68.9094
519.5000	69.0258
519.4000	69.1355
519.3000	69.2328
519.2000	69.3265
519.1000	69.4143
519.0000	69.4933
518.9000	69.5602
518.8000	69.6206
518.7000	69.67
518.6000	69.7131
518.5000	69.7469
518.4000	69.7695
518.3000	69.7809
518.2000	69.7862
518.1000	69.7819
518.0000	69.7665
517.9000	69.7414
517.8000	69.7091
517.7000	69.6702
517.6000	69.6167
517.5000	69.554
517.4000	69.4824
517.3000	69.4111
517.2000	69.3299
517.1000	69.2388
517.0000	69.1407
516.9000	69.0375
516.8000	68.9336
516.7000	68.8202
516.6000	68.6969
516.5000	68.574
516.4000	68.4503
516.3000	68.3256
516.2000	68.1965
516.1000	68.0679
516.0000	67.9401
515.9000	67.8185
515.8000	67.6955
515.7000	67.5677
515.6000	67.4465
515.5000	67.328
515.4000	67.2162
515.3000	67.1103
515.2000	67.0059
515.1000	66.9089
515.0000	66.8208
514.9000	66.7343
514.8000	66.6575
514.7000	66.5862
514.6000	66.5264
514.5000	66.4725
514.4000	66.4292
514.3000	66.3913
514.2000	66.366
514.1000	66.3492
514.0000	66.3394
513.9000	66.3454
513.8000	66.3591
513.7000	66.3786
513.6000	66.407
513.5000	66.4513
513.4000	66.5066
513.3000	66.5672
513.2000	66.6351
513.1000	66.7139
513.0000	66.7968
512.9000	66.8882
512.8000	66.9865
512.7000	67.091
512.6000	67.1994
512.5000	67.3196
512.4000	67.4442
512.3000	67.5689
512.2000	67.6961
512.1000	67.8234
512.0000	67.9582
511.9000	68.0878
511.8000	68.2233
511.7000	68.3551
511.6000	68.4884
511.5000	68.6199
511.4000	68.7492
511.3000	68.8787
511.2000	69.0064
511.1000	69.1317
511.0000	69.2498
510.9000	69.36
510.8000	69.4603
510.7000	69.5565
510.6000	69.6443
510.5000	69.7341
510.4000	69.8058
510.3000	69.8781
510.2000	69.9378
510.1000	69.9935
510.0000	70.0362
509.9000	70.0655
509.8000	70.0915
509.7000	70.1024
509.6000	70.1057
509.5000	70.0976
509.4000	70.0821
509.3000	70.0565
509.2000	70.0261
509.1000	69.9882
509.0000	69.9417
508.9000	69.8836
508.8000	69.8251
508.7000	69.7521
508.6000	69.6712
508.5000	69.5849
508.4000	69.4963
508.3000	69.4083
508.2000	69.3074
508.1000	69.205
508.0000	69.0984
507.9000	68.9888
507.8000	68.8784
507.7000	68.7687
507.6000	68.6575
507.5000	68.5446
507.4000	68.4337
507.3000	68.3251
507.2000	68.2187
507.1000	68.1169
507.0000	68.0234
506.9000	67.9288
506.8000	67.8396
506.7000	67.7524
506.6000	67.6767
506.5000	67.609
506.4000	67.5458
506.3000	67.4906
506.2000	67.4427
506.1000	67.4035
506.0000	67.372
505.9000	67.3524
505.8000	67.3413
505.7000	67.3372
505.6000	67.3402
505.5000	67.3519
505.4000	67.3654
505.3000	67.3976
505.2000	67.4378
505.1000	67.4878
505.0000	67.5488
504.9000	67.611
504.8000	67.6827
504.7000	67.7621
504.6000	67.8529
504.5000	67.947
504.4000	68.0451
504.3000	68.1522
504.2000	68.2629
504.1000	68.3769
504.0000	68.4986
503.9000	68.6201
503.8000	68.7487
503.7000	68.872
503.6000	68.9949
503.5000	69.1207
503.4000	69.2395
503.3000	69.3687
503.2000	69.4921
503.1000	69.6105
503.0000	69.7275
502.9000	69.8374
502.8000	69.9479
502.7000	70.0467
502.6000	70.1439
502.5000	70.2345
502.4000	70.3173
502.3000	70.3942
502.2000	70.4618
502.1000	70.5226
502.0000	70.5796
501.9000	70.625
501.8000	70.6652
501.7000	70.6918
501.6000	70.7132
501.5000	70.7279
501.4000	70.7247
501.3000	70.7183
501.2000	70.7018
501.1000	70.6825
501.0000	70.648
500.9000	70.6099
500.8000	70.5618
500.7000	70.5111
500.6000	70.4524
500.5000	70.3863
500.4000	70.3137
500.3000	70.2371
500.2000	70.1552
500.1000	70.0696
500.0000	69.9821
499.9000	69.89
499.8000	69.8011
499.7000	69.7087
499.6000	69.6169
499.5000	69.5189
499.4000	69.4273
499.3000	69.3372
499.2000	69.2486
499.1000	69.1621
499.0000	69.0807
498.9000	69.0038
498.8000	68.9307
498.7000	68.8625
498.6000	68.7982
498.5000	68.7393
498.4000	68.6844
498.3000	68.6438
498.2000	68.6074
498.1000	68.5804
498.0000	68.5594
497.9000	68.5495
497.8000	68.5472
497.7000	68.5499
497.6000	68.5643
497.5000	68.5849
497.4000	68.6105
497.3000	68.6493
497.2000	68.6884
497.1000	68.7367
497.0000	68.7949
496.9000	68.8642
496.8000	68.9381
496.7000	69.0136
496.6000	69.0952
496.5000	69.1832
496.4000	69.2742
496.3000	69.3729
496.2000	69.4721
496.1000	69.5774
496.0000	69.6828
495.9000	69.7888
495.8000	69.9012
495.7000	70.0082
495.6000	70.12
495.5000	70.2328
495.4000	70.3425
495.3000	70.4462
495.2000	70.5494
495.1000	70.6443
495.0000	70.7425
494.9000	70.8338
494.8000	70.9207
494.7000	70.9991
494.6000	71.0727
494.5000	71.1444
494.4000	71.2087
494.3000	71.2656
494.2000	71.3112
494.1000	71.3598
494.0000	71.3995
493.9000	71.4293
493.8000	71.452
493.7000	71.4619
493.6000	71.4698
493.5000	71.4764
493.4000	71.4651
493.3000	71.449
493.2000	71.4314
493.1000	71.4077
493.0000	71.375
492.9000	71.3288
492.8000	71.2833
492.7000	71.2318
492.6000	71.1794
492.5000	71.1153
492.4000	71.0411
492.3000	70.9721
492.2000	70.9011
492.1000	70.8322
492.0000	70.7579
491.9000	70.6796
491.8000	70.609
491.7000	70.5376
491.6000	70.4591
491.5000	70.3846
491.4000	70.3182
491.3000	70.2523
491.2000	70.1893
491.1000	70.1313
491.0000	70.078
490.9000	70.0302
490.8000	69.9931
490.7000	69.957
490.6000	69.9278
490.5000	69.9036
490.4000	69.886
490.3000	69.8787
490.2000	69.8735
490.1000	69.8788
490.0000	69.8929
489.9000	69.9113
489.8000	69.9344
489.7000	69.9725
489.6000	70.0099
489.5000	70.0578
489.4000	70.1094
489.3000	70.1683
489.2000	70.2333
489.1000	70.2994
489.0000	70.3707
488.9000	70.4448
488.8000	70.5294
488.7000	70.612
488.6000	70.7004
488.5000	70.788
488.4000	70.8819
488.3000	70.9765
488.2000	71.0705
488.1000	71.1614
488.0000	71.2531
487.9000	71.3471
487.8000	71.4357
487.7000	71.5197
487.6000	71.6061
487.5000	71.6874
487.4000	71.764
487.3000	71.8416
487.2000	71.9089
487.1000	71.9746
487.0000	72.0335
486.9000	72.0865
486.8000	72.1284
486.7000	72.1695
486.6000	72.2042
486.5000	72.2315
486.4000	72.2589
486.3000	72.2709
486.2000	72.2814
486.1000	72.2864
486.0000	72.28
485.9000	72.2705
485.8000	72.2556
485.7000	72.236
485.6000	72.2082
485.5000	72.1751
485.4000	72.1396
485.3000	72.1009
485.2000	72.0646
485.1000	72.0212
485.0000	71.9724
484.9000	71.9222
484.8000	71.867
484.7000	71.8108
484.6000	71.7566
484.5000	71.701
484.4000	71.6493
484.3000	71.5923
484.2000	71.5403
484.1000	71.4861
484.0000	71.4373
483.9000	71.3927
483.8000	71.3498
483.7000	71.3109
483.6000	71.2733
483.5000	71.2395
483.4000	71.2108
483.3000	71.1874
483.2000	71.1687
483.1000	71.1609
483.0000	71.1517
482.9000	71.15
482.8000	71.154
482.7000	71.167
482.6000	71.183
482.5000	71.2042
482.4000	71.2314
482.3000	71.2653
482.2000	71.3026
482.1000	71.3446
482.0000	71.3942
481.9000	71.4457
481.8000	71.5061
481.7000	71.5704
481.6000	71.6342
481.5000	71.6974
481.4000	71.768
481.3000	71.8368
481.2000	71.9091
481.1000	71.9866
481.0000	72.0594
480.9000	72.1394
480.8000	72.2172
480.7000	72.2854
480.6000	72.3606
480.5000	72.4329
480.4000	72.4995
480.3000	72.5637
480.2000	72.6228
480.1000	72.6763
480.0000	72.7311
479.9000	72.7808
479.8000	72.8261
479.7000	72.8728
479.6000	72.9078
479.5000	72.9394
479.4000	72.9702
479.3000	72.9883
479.2000	73.0029
479.1000	73.021
479.0000	73.0262
478.9000	73.0238
478.8000	73.0196
478.7000	73.011
478.6000	72.9993
478.5000	72.9871
478.4000	72.9675
478.3000	72.9447
478.2000	72.9148
478.1000	72.8825
478.0000	72.8536
477.9000	72.8184
477.8000	72.7812
477.7000	72.7471
477.6000	72.7098
477.5000	72.6661
477.4000	72.6232
477.3000	72.5848
477.2000	72.546
477.1000	72.506
477.0000	72.4673
476.9000	72.43
476.8000	72.3948
476.7000	72.3637
476.6000	72.3405
476.5000	72.3162
476.4000	72.294
476.3000	72.2764
476.2000	72.2617
476.1000	72.2503
476.0000	72.2472
475.9000	72.2458
475.8000	72.2536
475.7000	72.2606
475.6000	72.2663
475.5000	72.2826
475.4000	72.3053
475.3000	72.3296
475.2000	72.3597
475.1000	72.3921
475.0000	72.4322
474.9000	72.4747
474.8000	72.5173
474.7000	72.5624
474.6000	72.6077
474.5000	72.658
474.4000	72.7053
474.3000	72.7615
474.2000	72.8148
474.1000	72.8738
474.0000	72.9322
473.9000	72.9879
473.8000	73.044
473.7000	73.1017
473.6000	73.1578
473.5000	73.2091
473.4000	73.2543
473.3000	73.2986
473.2000	73.3388
473.1000	73.3821
473.0000	73.4239
472.9000	73.4552
472.8000	73.4897
472.7000	73.5144
472.6000	73.538
472.5000	73.5516
472.4000	73.5669
472.3000	73.5782
472.2000	73.5813
472.1000	73.5796
472.0000	73.5729
471.9000	73.5656
471.8000	73.5563
471.7000	73.5412
471.6000	73.5277
471.5000	73.5054
471.4000	73.4806
471.3000	73.455
471.2000	73.4258
471.1000	73.3963
471.0000	73.3663
470.9000	73.3407
470.8000	73.3131
470.7000	73.2839
470.6000	73.252
470.5000	73.2208
470.4000	73.1933
470.3000	73.1696
470.2000	73.1417
470.1000	73.1151
470.0000	73.0919
469.9000	73.0714
469.8000	73.0529
469.7000	73.0404
469.6000	73.0301
469.5000	73.0253
469.4000	73.0174
469.3000	73.0101
469.2000	73.0055
469.1000	73.006
469.0000	73.0161
468.9000	73.028
468.8000	73.0418
468.7000	73.0548
468.6000	73.0734
468.5000	73.0969
468.4000	73.1207
468.3000	73.1479
468.2000	73.1777
468.1000	73.21
468.0000	73.2371
467.9000	73.2669
467.8000	73.3001
467.7000	73.3377
467.6000	73.3768
467.5000	73.4149
467.4000	73.4494
467.3000	73.4855
467.2000	73.5203
467.1000	73.5538
467.0000	73.5876
466.9000	73.6186
466.8000	73.649
466.7000	73.6739
466.6000	73.6981
466.5000	73.7144
466.4000	73.738
466.3000	73.7559
466.2000	73.7725
466.1000	73.7814
466.0000	73.786
465.9000	73.7916
465.8000	73.7929
465.7000	73.7893
465.6000	73.7843
465.5000	73.7775
465.4000	73.7665
465.3000	73.7521
465.2000	73.7351
465.1000	73.7177
465.0000	73.6997
464.9000	73.6835
464.8000	73.6602
464.7000	73.6328
464.6000	73.604
464.5000	73.5777
464.4000	73.5544
464.3000	73.5261
464.2000	73.5004
464.1000	73.4727
464.0000	73.4463
463.9000	73.4213
463.8000	73.3977
463.7000	73.3774
463.6000	73.361
463.5000	73.3446
463.4000	73.328
463.3000	73.3118
463.2000	73.2977
463.1000	73.2921
463.0000	73.2852
462.9000	73.2811
462.8000	73.2749
462.7000	73.2772
462.6000	73.2757
462.5000	73.2822
462.4000	73.2849
462.3000	73.2913
462.2000	73.305
462.1000	73.3156
462.0000	73.33
461.9000	73.3431
461.8000	73.3567
461.7000	73.3756
461.6000	73.3952
461.5000	73.4152
461.4000	73.4332
461.3000	73.451
461.2000	73.4747
461.1000	73.4882
461.0000	73.5094
460.9000	73.5272
460.8000	73.5468
460.7000	73.5638
460.6000	73.5756
460.5000	73.5875
460.4000	73.5946
460.3000	73.6033
460.2000	73.6094
460.1000	73.6105
460.0000	73.6125
459.9000	73.6088
459.8000	73.6097
459.7000	73.6061
459.6000	73.5982
459.5000	73.5935
459.4000	73.5807
459.3000	73.5674
459.2000	73.5535
459.1000	73.5384
459.0000	73.5203
458.9000	73.5018
458.8000	73.4809
458.7000	73.4583
458.6000	73.4387
458.5000	73.418
458.4000	73.3951
458.3000	73.3732
458.2000	73.3445
458.1000	73.3213
458.0000	73.2976
457.9000	73.2753
457.8000	73.2552
457.7000	73.2342
457.6000	73.2126
457.5000	73.1927
457.4000	73.1723
457.3000	73.1593
457.2000	73.146
457.1000	73.1344
457.0000	73.1204
456.9000	73.1097
456.8000	73.0976
456.7000	73.0907
456.6000	73.086
456.5000	73.085
456.4000	73.0827
456.3000	73.0806
456.2000	73.0799
456.1000	73.0809
456.0000	73.0816
455.9000	73.0853
455.8000	73.0925
455.7000	73.0936
455.6000	73.0927
455.5000	73.1005
455.4000	73.1079
455.3000	73.1113
455.2000	73.1186
455.1000	73.1175
455.0000	73.1229
454.9000	73.1216
454.8000	73.1218
454.7000	73.1189
454.6000	73.1147
454.5000	73.1129
454.4000	73.1122
454.3000	73.1017
454.2000	73.092
454.1000	73.0853
454.0000	73.0761
453.9000	73.0608
453.8000	73.0455
453.7000	73.0287
453.6000	73.0135
453.5000	73.0012
453.4000	72.9854
453.3000	72.9678
453.2000	72.9462
453.1000	72.9249
453.0000	72.9055
452.9000	72.8797
452.8000	72.8563
452.7000	72.8388
452.6000	72.814
452.5000	72.7894
452.4000	72.7686
452.3000	72.7446
452.2000	72.7232
452.1000	72.7041
452.0000	72.6822
451.9000	72.6611
451.8000	72.641
451.7000	72.6227
451.6000	72.6055
451.5000	72.5961
451.4000	72.5784
451.3000	72.5652
451.2000	72.5551
451.1000	72.5388
451.0000	72.5315
450.9000	72.5228
450.8000	72.5138
450.7000	72.5088
450.6000	72.5041
450.5000	72.5014
450.4000	72.4923
450.3000	72.4884
450.2000	72.4846
450.1000	72.4793
450.0000	72.4793
449.9000	72.4718
449.8000	72.4703
449.7000	72.4636
449.6000	72.4579
449.5000	72.4556
449.4000	72.4483
449.3000	72.4421
449.2000	72.4361
449.1000	72.426
449.0000	72.4136
448.9000	72.3999
448.8000	72.3879
448.7000	72.3704
448.6000	72.3513
448.5000	72.3357
448.4000	72.3174
448.3000	72.2955
448.2000	72.2766
448.1000	72.2533
448.0000	72.2243
447.9000	72.1949
447.8000	72.1678
447.7000	72.1387
447.6000	72.107
447.5000	72.0783
447.4000	72.0523
447.3000	72.0224
447.2000	71.9941
447.1000	71.9642
447.0000	71.9385
446.9000	71.9082
446.8000	71.8789
446.7000	71.8512
446.6000	71.8244
446.5000	71.803
446.4000	71.7807
446.3000	71.7623
446.2000	71.7421
446.1000	71.7263
446.0000	71.7115
445.9000	71.6954
445.8000	71.6791
445.7000	71.6638
445.6000	71.6497
445.5000	71.6433
445.4000	71.631
445.3000	71.622
445.2000	71.6146
445.1000	71.6118
445.0000	71.6032
444.9000	71.5976
444.8000	71.597
444.7000	71.5921
444.6000	71.5842
444.5000	71.5755
444.4000	71.5639
444.3000	71.557
444.2000	71.5496
444.1000	71.5439
444.0000	71.5377
443.9000	71.5275
443.8000	71.5198
443.7000	71.5055
443.6000	71.4909
443.5000	71.4711
443.4000	71.4524
443.3000	71.4354
443.2000	71.4083
443.1000	71.3855
443.0000	71.355
442.9000	71.3262
442.8000	71.3025
442.7000	71.2692
442.6000	71.2365
442.5000	71.2025
442.4000	71.1643
442.3000	71.1222
442.2000	71.0773
442.1000	71.04
442.0000	70.9965
441.9000	70.9569
441.8000	70.9192
441.7000	70.8769
441.6000	70.8421
441.5000	70.8025
441.4000	70.7765
441.3000	70.7432
441.2000	70.7051
441.1000	70.6757
441.0000	70.6458
440.9000	70.6168
440.8000	70.5929
440.7000	70.573
440.6000	70.5538
440.5000	70.5339
440.4000	70.5196
440.3000	70.5062
440.2000	70.4964
440.1000	70.487
440.0000	70.4728
439.9000	70.4693
439.8000	70.4619
439.7000	70.4603
439.6000	70.4596
439.5000	70.4571
439.4000	70.452
439.3000	70.4502
439.2000	70.4494
439.1000	70.4462
439.0000	70.4411
438.9000	70.434
438.8000	70.4263
438.7000	70.416
438.6000	70.4033
438.5000	70.3909
438.4000	70.3777
438.3000	70.3574
438.2000	70.3365
438.1000	70.3093
438.0000	70.282
437.9000	70.254
437.8000	70.225
437.7000	70.1929
437.6000	70.1554
437.5000	70.1188
437.4000	70.0823
437.3000	70.04
437.2000	69.999
437.1000	69.9582
437.0000	69.9121
436.9000	69.864
436.8000	69.818
436.7000	69.772
436.6000	69.7248
436.5000	69.6785
436.4000	69.6328
436.3000	69.5876
436.2000	69.5461
436.1000	69.5081
436.0000	69.4672
435.9000	69.4304
435.8000	69.3945
435.7000	69.3666
435.6000	69.3321
435.5000	69.3015
435.4000	69.2774
435.3000	69.258
435.2000	69.2439
435.1000	69.2264
435.0000	69.2131
434.9000	69.2064
434.8000	69.2012
434.7000	69.2002
434.6000	69.1928
434.5000	69.1887
434.4000	69.1917
434.3000	69.191
434.2000	69.192
434.1000	69.1932
434.0000	69.1998
433.9000	69.2057
433.8000	69.2079
433.7000	69.2034
433.6000	69.1974
433.5000	69.1935
433.4000	69.1916
433.3000	69.1774
433.2000	69.1676
433.1000	69.1473
433.0000	69.1286
432.9000	69.1053
432.8000	69.0768
432.7000	69.0479
432.6000	69.0126
432.5000	68.9771
432.4000	68.9355
432.3000	68.8879
432.2000	68.8385
432.1000	68.7926
432.0000	68.7429
431.9000	68.6895
431.8000	68.6316
431.7000	68.576
431.6000	68.522
431.5000	68.4654
431.4000	68.4116
431.3000	68.3544
431.2000	68.2997
431.1000	68.2454
431.0000	68.1947
430.9000	68.1413
430.8000	68.0966
430.7000	68.0551
430.6000	68.0178
430.5000	67.9794
430.4000	67.9458
430.3000	67.9146
430.2000	67.8875
430.1000	67.8681
430.0000	67.8429
429.9000	67.8256
429.8000	67.8119
429.7000	67.8026
429.6000	67.7944
429.5000	67.7886
429.4000	67.7841
429.3000	67.7843
429.2000	67.7825
429.1000	67.7828
429.0000	67.777
428.9000	67.7741
428.8000	67.7721
428.7000	67.7693
428.6000	67.7637
428.5000	67.7556
428.4000	67.7449
428.3000	67.7366
428.2000	67.7203
428.1000	67.6955
428.0000	67.6745
427.9000	67.6473
427.8000	67.6207
427.7000	67.584
427.6000	67.544
427.5000	67.5006
427.4000	67.4572
427.3000	67.4073
427.2000	67.3579
427.1000	67.304
427.0000	67.2501
426.9000	67.1901
426.8000	67.1327
426.7000	67.0704
426.6000	67.0118
426.5000	66.9564
426.4000	66.8933
426.3000	66.835
426.2000	66.7748
426.1000	66.72
426.0000	66.6664
425.9000	66.6152
425.8000	66.5711
425.7000	66.5298
425.6000	66.4865
425.5000	66.4498
425.4000	66.4156
425.3000	66.3881
425.2000	66.3625
425.1000	66.3406
425.0000	66.3223
424.9000	66.3119
424.8000	66.3032
424.7000	66.2948
424.6000	66.293
424.5000	66.2929
424.4000	66.2914
424.3000	66.2935
424.2000	66.294
424.1000	66.2941
424.0000	66.2938
423.9000	66.294
423.8000	66.2944
423.7000	66.2945
423.6000	66.2904
423.5000	66.2893
423.4000	66.2811
423.3000	66.265
423.2000	66.2495
423.1000	66.2318
423.0000	66.207
422.9000	66.1803
422.8000	66.1519
422.7000	66.1168
422.6000	66.079
422.5000	66.0437
422.4000	66.0008
422.3000	65.9576
422.2000	65.9093
422.1000	65.8612
422.0000	65.8088
421.9000	65.7503
421.8000	65.6959
421.7000	65.6416
421.6000	65.5915
421.5000	65.5375
421.4000	65.4861
421.3000	65.4392
421.2000	65.3918
421.1000	65.3471
421.0000	65.3043
420.9000	65.2641
420.8000	65.2326
420.7000	65.2012
420.6000	65.173
420.5000	65.1449
420.4000	65.1287
420.3000	65.1152
420.2000	65.1007
420.1000	65.0985
420.0000	65.4158
419.9000	65.414
419.8000	65.4225
419.7000	65.4322
419.6000	65.4459
419.5000	65.4624
419.4000	65.472
419.3000	65.4843
419.2000	65.4982
419.1000	65.5163
419.0000	65.5321
418.9000	65.5456
418.8000	65.5544
418.7000	65.5619
418.6000	65.561
418.5000	65.554
418.4000	65.5465
418.3000	65.5382
418.2000	65.5193
418.1000	65.5002
418.0000	65.4772
417.9000	65.4507
417.8000	65.4184
417.7000	65.3803
417.6000	65.3397
417.5000	65.291
417.4000	65.2413
417.3000	65.1837
417.2000	65.133
417.1000	65.074
417.0000	65.0142
416.9000	64.9606
416.8000	64.9056
416.7000	64.8461
416.6000	64.798
416.5000	64.7459
416.4000	64.6919
416.3000	64.6398
416.2000	64.6011
416.1000	64.5621
416.0000	64.5271
415.9000	64.4956
415.8000	64.4676
415.7000	64.4492
415.6000	64.4298
415.5000	64.4229
415.4000	64.4189
415.3000	64.4159
415.2000	64.4159
415.1000	64.4241
415.0000	64.4303
414.9000	64.442
414.8000	64.4538
414.7000	64.4691
414.6000	64.4797
414.5000	64.4951
414.4000	64.5055
414.3000	64.5156
414.2000	64.5304
414.1000	64.5416
414.0000	64.5497
413.9000	64.5502
413.8000	64.5486
413.7000	64.5388
413.6000	64.5283
413.5000	64.5119
413.4000	64.4912
413.3000	64.4672
413.2000	64.4423
413.1000	64.4089
413.0000	64.3768
412.9000	64.3395
412.8000	64.2988
412.7000	64.2632
412.6000	64.2152
412.5000	64.1661
412.4000	64.1194
412.3000	64.0728
412.2000	64.0304
412.1000	63.9943
412.0000	63.9549
411.9000	63.9185
411.8000	63.8879
411.7000	63.8601
411.6000	63.8351
411.5000	63.8169
411.4000	63.8
411.3000	63.7911
411.2000	63.7869
411.1000	63.787
411.0000	63.7915
410.9000	63.8016
410.8000	63.8166
410.7000	63.8369
410.6000	63.8554
410.5000	63.8775
410.4000	63.9004
410.3000	63.9281
410.2000	63.9543
410.1000	63.9794
410.0000	64.0061
409.9000	64.0313
409.8000	64.0528
409.7000	64.072
409.6000	64.0917
409.5000	64.1029
409.4000	64.1147
409.3000	64.1225
409.2000	64.1257
409.1000	64.1198
409.0000	64.1156
408.9000	64.0992
408.8000	64.0881
408.7000	64.0735
408.6000	64.0531
408.5000	64.0304
408.4000	64.0015
408.3000	63.9737
408.2000	63.9451
408.1000	63.913
408.0000	63.8871
407.9000	63.8646
407.8000	63.835
407.7000	63.8067
407.6000	63.7858
407.5000	63.7706
407.4000	63.7545
407.3000	63.7543
407.2000	63.7491
407.1000	63.742
407.0000	63.7432
406.9000	63.752
406.8000	63.7663
406.7000	63.7848
406.6000	63.806
406.5000	63.8334
406.4000	63.8549
406.3000	63.8819
406.2000	63.9113
406.1000	63.9456
406.0000	63.9835
405.9000	64.0177
405.8000	64.0559
405.7000	64.085
405.6000	64.1128
405.5000	64.1459
405.4000	64.1736
405.3000	64.2009
405.2000	64.2226
405.1000	64.2434
405.0000	64.2551
404.9000	64.2711
404.8000	64.2829
404.7000	64.2839
404.6000	64.2945
404.5000	64.2979
404.4000	64.291
404.3000	64.2892
404.2000	64.2781
404.1000	64.2723
404.0000	64.2681
403.9000	64.2652
403.8000	64.2625
403.7000	64.2561
403.6000	64.2602
403.5000	64.2558
403.4000	64.2634
403.3000	64.2676
403.2000	64.2749
403.1000	64.2908
403.0000	64.3004
402.9000	64.3161
402.8000	64.3384
402.7000	64.3572
402.6000	64.3858
402.5000	64.4129
402.4000	64.4465
402.3000	64.4718
402.2000	64.5069
402.1000	64.5398
402.0000	64.5657
401.9000	64.5991
401.8000	64.6296
401.7000	64.6539
401.6000	64.6767
401.5000	64.7043
401.4000	64.7302
401.3000	64.7505
401.2000	64.768
401.1000	64.7811
401.0000	64.7894
400.9000	64.7964
400.8000	64.7947
400.7000	64.7962
400.6000	64.7888
400.5000	64.7799
400.4000	64.7741
400.3000	64.7577
400.2000	64.7426
400.1000	64.7322
400.0000	64.726
399.9000	64.707
399.8000	64.6898
399.7000	64.675
399.6000	64.6585
399.5000	64.6515
399.4000	64.6431
399.3000	64.6328
399.2000	64.6251
399.1000	64.621
399.0000	64.6212
398.9000	64.6174
398.8000	64.6178
398.7000	64.6244
398.6000	64.6275
398.5000	64.6304
398.4000	64.6386
398.3000	64.6409
398.2000	64.6522
398.1000	64.6595
398.0000	64.6625
397.9000	64.6666
397.8000	64.6734
397.7000	64.6829
397.6000	64.6846
397.5000	64.6893
397.4000	64.6843
397.3000	64.6907
397.2000	64.686
397.1000	64.6824
397.0000	64.6782
396.9000	64.6716
396.8000	64.6561
396.7000	64.652
396.6000	64.6354
396.5000	64.6228
396.4000	64.6116
396.3000	64.5926
396.2000	64.5693
396.1000	64.5508
396.0000	64.5385
395.9000	64.5177
395.8000	64.5052
395.7000	64.4851
395.6000	64.4763
395.5000	64.4591
395.4000	64.449
395.3000	64.4345
395.2000	64.4281
395.1000	64.4179
395.0000	64.4162
394.9000	64.4137
394.8000	64.4111
394.7000	64.4113
394.6000	64.4143
394.5000	64.4143
394.4000	64.415
394.3000	64.421
394.2000	64.4246
394.1000	64.4287
394.0000	64.4315
393.9000	64.4405
393.8000	64.4446
393.7000	64.4541
393.6000	64.4564
393.5000	64.4624
393.4000	64.4674
393.3000	64.473
393.2000	64.4845
393.1000	64.4943
393.0000	64.5011
392.9000	64.5063
392.8000	64.5174
392.7000	64.5226
392.6000	64.528
392.5000	64.5381
392.4000	64.5429
392.3000	64.552
392.2000	64.5607
392.1000	64.5684
392.0000	64.5823
391.9000	64.588
391.8000	64.5953
391.7000	64.603
391.6000	64.6071
391.5000	64.6147
391.4000	64.628
391.3000	64.6351
391.2000	64.6426
391.1000	64.6518
391.0000	64.6634
390.9000	64.6751
390.8000	64.6866
390.7000	64.6961
390.6000	64.7028
390.5000	64.7137
390.4000	64.7224
390.3000	64.7358
390.2000	64.7505
390.1000	64.7663
390.0000	64.7783
389.9000	64.7915
389.8000	64.7984
389.7000	64.8164
389.6000	64.8279
389.5000	64.8385
389.4000	64.8542
389.3000	64.8651
389.2000	64.8769
389.1000	64.8863
389.0000	64.8984
388.9000	64.9078
388.8000	64.9143
388.7000	64.9229
388.6000	64.9229
388.5000	64.9256
388.4000	64.9257
388.3000	64.928
388.2000	64.9319
388.1000	64.9336
388.0000	64.9323
387.9000	64.9362
387.8000	64.936
387.7000	64.9383
387.6000	64.9409
387.5000	64.946
387.4000	64.9519
387.3000	64.9524
387.2000	64.9559
387.1000	64.9617
387.0000	64.9691
386.9000	64.974
386.8000	64.9816
386.7000	64.9846
386.6000	64.991
386.5000	64.9939
386.4000	65.0034
386.3000	65.0084
386.2000	65.0129
386.1000	65.0173
386.0000	65.0208
385.9000	65.0224
385.8000	65.02
385.7000	65.0252
385.6000	65.0275
385.5000	65.0255
385.4000	65.0266
385.3000	65.0279
385.2000	65.0232
385.1000	65.0203
385.0000	65.0158
384.9000	65.0106
384.8000	64.9989
384.7000	64.9964
384.6000	64.9924
384.5000	64.9887
384.4000	64.9826
384.3000	64.9818
384.2000	64.9803
384.1000	64.9772
384.0000	64.9752
383.9000	64.9741
383.8000	64.9687
383.7000	64.9636
383.6000	64.9685
383.5000	64.966
383.4000	64.9688
383.3000	64.9684
383.2000	64.9675
383.1000	64.962
383.0000	64.9606
382.9000	64.953
382.8000	64.9463
382.7000	64.9296
382.6000	64.9206
382.5000	64.9109
382.4000	64.8975
382.3000	64.881
382.2000	64.8741
382.1000	64.8604
382.0000	64.8411
381.9000	64.8244
381.8000	64.8057
381.7000	64.7862
381.6000	64.7773
381.5000	64.7618
381.4000	64.7372
381.3000	64.7194
381.2000	64.7048
381.1000	64.6955
381.0000	64.68
380.9000	64.665
380.8000	64.6482
380.7000	64.6339
380.6000	64.6101
380.5000	64.5891
380.4000	64.5682
380.3000	64.549
380.2000	64.5205
380.1000	64.4974
380.0000	64.4666
379.9000	64.4389
379.8000	64.4116
379.7000	64.3846
379.6000	64.3535
379.5000	64.3222
379.4000	64.2899
379.3000	64.2574
379.2000	64.222
379.1000	64.1863
379.0000	64.1507
378.9000	64.1131
378.8000	64.076
378.7000	64.0407
378.6000	64.0066
378.5000	63.9698
378.4000	63.9292
378.3000	63.8883
378.2000	63.849
378.1000	63.8031
378.0000	63.7509
377.9000	63.6964
377.8000	63.6428
377.7000	63.5826
377.6000	63.5233
377.5000	63.4651
377.4000	63.4058
377.3000	63.3454
377.2000	63.2806
377.1000	63.2096
377.0000	63.1404
376.9000	63.0665
376.8000	62.9966
376.7000	62.9227
376.6000	62.8486
376.5000	62.768
376.4000	62.6952
376.3000	62.6128
376.2000	62.5273
376.1000	62.442
376.0000	62.355
375.9000	62.256
375.8000	62.1555
375.7000	62.0464
375.6000	61.9405
375.5000	61.8254
375.4000	61.7048
375.3000	61.5826
375.2000	61.45
375.1000	61.3123
375.0000	61.1648
374.9000	61.0206
374.8000	60.8623
374.7000	60.7045
374.6000	60.54
374.5000	60.3702
374.4000	60.1931
374.3000	60.0079
374.2000	59.8218
374.1000	59.6263
374.0000	59.4153
373.9000	59.199
373.8000	58.979
373.7000	58.7473
373.6000	58.5084
373.5000	58.2548
373.4000	57.9896
373.3000	57.7127
373.2000	57.4303
373.1000	57.1313
373.0000	56.8235
372.9000	56.4955
372.8000	56.1598
372.7000	55.8172
372.6000	55.4555
372.5000	55.0869
372.4000	54.7038
372.3000	54.3126
372.2000	53.9087
372.1000	53.4876
372.0000	53.0499
371.9000	52.6015
371.8000	52.1444
371.7000	51.6755
371.6000	51.1823
371.5000	50.6791
371.4000	50.1576
371.3000	49.6303
371.2000	49.0861
371.1000	48.5261
371.0000	47.9493
370.9000	47.3585
370.8000	46.7568
370.7000	46.1431
370.6000	45.5065
370.5000	44.8625
370.4000	44.2104
370.3000	43.5407
370.2000	42.8628
370.1000	42.17
370.0000	39.3347
369.9000	38.5825
369.8000	37.8254
369.7000	37.0552
369.6000	36.2832
369.5000	35.4948
369.4000	34.7011
369.3000	33.9091
369.2000	33.1121
369.1000	32.3039
369.0000	31.4973
368.9000	30.6868
368.8000	29.8867
368.7000	29.0869
368.6000	28.2808
368.5000	27.4794
368.4000	26.679
368.3000	25.8839
368.2000	25.0957
368.1000	24.3109
368.0000	23.5326
367.9000	22.7637
367.8000	22.0022
367.7000	21.2463
367.6000	20.4989
367.5000	19.7631
367.4000	19.0359
367.3000	18.3231
367.2000	17.6176
367.1000	16.9221
367.0000	16.246
366.9000	15.5759
366.8000	14.9212
366.7000	14.2777
366.6000	13.6484
366.5000	13.0405
366.4000	12.4426
366.3000	11.8607
366.2000	11.2925
366.1000	10.7433
366.0000	10.2089
365.9000	9.69046
365.8000	9.18764
365.7000	8.69966
365.6000	8.22567
365.5000	7.76775
365.4000	7.32374
365.3000	6.90039
365.2000	6.49364
365.1000	6.1011
365.0000	5.72471
364.9000	5.35916
364.8000	5.00892
364.7000	4.67652
364.6000	4.36009
364.5000	4.05661
364.4000	3.76732
364.3000	3.49319
364.2000	3.2348
364.1000	2.99009
364.0000	2.75793
363.9000	2.53939
363.8000	2.33362
363.7000	2.14167
363.6000	1.95949
363.5000	1.78795
363.4000	1.62778
363.3000	1.47959
363.2000	1.34418
363.1000	1.21709
363.0000	1.09871
362.9000	0.988415
362.8000	0.887735
362.7000	0.795168
362.6000	0.709463
362.5000	0.630923
362.4000	0.55991
362.3000	0.495359
362.2000	0.437424
362.1000	0.384876
362.0000	0.337637
361.9000	0.295451
361.8000	0.25756
361.7000	0.224483
361.6000	0.194762
361.5000	0.16838
361.4000	0.145284
361.3000	0.125413
361.2000	0.107908
361.1000	0.0926347
361.0000	0.0792893
360.9000	0.067841
360.8000	0.0580094
360.7000	0.0496343
360.6000	0.0424733
360.5000	0.0362707
360.4000	0.0311957
360.3000	0.0268636
360.2000	0.0232514
360.1000	0.0202631
360.0000	0.0179172
359.9000	0.0157944
359.8000	0.0140684
359.7000	0.0125695
359.6000	0.0113208
359.5000	0.0103722
359.4000	0.00959821
359.3000	0.0088502
359.2000	0.00832529
359.1000	0.00789875
359.0000	0.00745077
358.9000	0.00715201
358.8000	0.00687735
358.7000	0.00667708
358.6000	0.00645214
358.5000	0.0062268
358.4000	0.00600164
358.3000	0.00582675
358.2000	0.00570015
358.1000	0.00557399
358.0000	0.00542505
357.9000	0.00525119
357.8000	0.00507694
357.7000	0.005026
357.6000	0.00497513
357.5000	0.00480137
357.4000	0.0047491
357.3000	0.00462345
357.2000	0.00457244
357.1000	0.004472
357.0000	0.00437178
356.9000	0.0043446
356.8000	0.00429444
356.7000	0.00416975
356.6000	0.00412163
356.5000	0.00402218
356.4000	0.00397152
356.3000	0.00387173
356.2000	0.00381958
356.1000	0.00371835
356.0000	0.00361707
355.9000	0.0035666
355.8000	0.0035405
355.7000	0.00348977
355.6000	0.00339065
355.5000	0.00333984
355.4000	0.00331638
355.3000	0.00324246
355.2000	0.00314467
355.1000	0.00314421
355.0000	0.00314467
354.9000	0.00307109
354.8000	0.00309488
354.7000	0.00311905
354.6000	0.00307116
354.5000	0.00307197
354.4000	0.00302354
354.3000	0.00302288
354.2000	0.00299837
354.1000	0.00294963
354.0000	0.0029985
353.9000	0.00292513
353.8000	0.00280235
353.7000	0.00272958
353.6000	0.00268113
353.5000	0.00263255
353.4000	0.00255902
353.3000	0.00253471
353.2000	0.00243741
353.1000	0.00238871
353.0000	0.00236371
352.9000	0.00228983
352.8000	0.00228986
352.7000	0.00226552
352.6000	0.0022409
352.5000	0.00221727
352.4000	0.00216889
352.3000	0.00216907
352.2000	0.00221795
352.1000	0.00211969
352.0000	0.00209482
351.9000	0.00211925
351.8000	0.00204586
351.7000	0.00199669
351.6000	0.00199668
351.5000	0.00194654
351.4000	0.00189777
351.3000	0.00187349
351.2000	0.00189775
351.1000	0.00192238
351.0000	0.00192187
350.9000	0.00187217
350.8000	0.0018471
350.7000	0.00187164
350.6000	0.0018229
350.5000	0.00189609
350.4000	0.00187135
350.3000	0.0018474
350.2000	0.00184783
350.1000	0.0018965
350.0000	0.00189641
349.9000	0.00187292
349.8000	0.00189776
349.7000	0.00182427
349.6000	0.00182463
349.5000	0.00175141
349.4000	0.00167858
349.3000	0.0017275
349.2000	0.00167808
349.1000	0.00160407
349.0000	0.00167741
348.9000	0.00162877
348.8000	0.00165444
348.7000	0.00155665
348.6000	0.00155579
348.5000	0.00153164
348.4000	0.00153161
348.3000	0.00155613
348.2000	0.00153172
348.1000	0.0016295
348.0000	0.00155575
347.9000	0.0016043
347.8000	0.00165354
347.7000	0.00155516
347.6000	0.00162915
347.5000	0.00158101
347.4000	0.00155633
347.3000	0.00160553
347.2000	0.00167784
347.1000	0.00175046
347.0000	0.00175132
346.9000	0.00175161
346.8000	0.00172763
346.7000	0.00175267
346.6000	0.00177695
346.5000	0.00170298
346.4000	0.00167845
346.3000	0.00162999
346.2000	0.00160486
346.1000	0.00165437
346.0000	0.00158014
345.9000	0.00157966
345.8000	0.0015551
345.7000	0.0015309
345.6000	0.00143308
345.5000	0.00138387
345.4000	0.00135872
345.3000	0.00135856
345.2000	0.00138269
345.1000	0.00135712
345.0000	0.00135726
344.9000	0.00138272
344.8000	0.00143182
344.7000	0.00143155
344.6000	0.00143219
344.5000	0.00138251
344.4000	0.00138262
344.3000	0.00140727
344.2000	0.00143227
344.1000	0.00148128
344.0000	0.00148146
343.9000	0.00153005
343.8000	0.00152996
343.7000	0.00152949
343.6000	0.00152939
343.5000	0.00152953
343.4000	0.00148043
343.3000	0.00152885
343.2000	0.00160264
343.1000	0.001627
343.0000	0.00165126
342.9000	0.00170082
342.8000	0.00172514
342.7000	0.00169969
342.6000	0.00165071
342.5000	0.00155209
342.4000	0.00152725
342.3000	0.00152829
342.2000	0.00157763
342.1000	0.00165143
342.0000	0.00162674
341.9000	0.00162674
341.8000	0.00165097
341.7000	0.00170035
341.6000	0.00165137
341.5000	0.00160291
341.4000	0.00160274
341.3000	0.00155418
341.2000	0.0015542
341.1000	0.00152984
341.0000	0.0015785
340.9000	0.00160365
340.8000	0.00165288
340.7000	0.00160364
340.6000	0.00157885
340.5000	0.0015295
340.4000	0.00150514
340.3000	0.00150529
340.2000	0.00152982
340.1000	0.00148017
340.0000	0.00902645
339.9000	0.00899985
339.8000	0.0088499
339.7000	0.00884985
339.6000	0.00887366
339.5000	0.00879827
339.4000	0.00872371
339.3000	0.0086971
339.2000	0.00874767
339.1000	0.00879474
339.0000	0.00879349
338.9000	0.00867057
338.8000	0.00864516
338.7000	0.00854329
338.6000	0.00858963
338.5000	0.00858805
338.4000	0.00846492
338.3000	0.00839229
338.2000	0.00844093
338.1000	0.00841576
338.0000	0.0082433
337.9000	0.0082183
337.8000	0.00819216
337.7000	0.00814361
337.6000	0.00811609
337.5000	0.0080663
337.4000	0.00806385
337.3000	0.00806184
337.2000	0.00803645
337.1000	0.00803766
337.0000	0.00811327
336.9000	0.00811257
336.8000	0.00818637
336.7000	0.00813638
336.6000	0.00803761
336.5000	0.00798744
336.4000	0.00796043
336.3000	0.00793609
336.2000	0.00791132
336.1000	0.00788601
336.0000	0.00791079
335.9000	0.00793189
335.8000	0.00803031
335.7000	0.00795704
335.6000	0.00788142
335.5000	0.00782983
335.4000	0.00773091
335.3000	0.00765684
335.2000	0.00760755
335.1000	0.00755698
335.0000	0.00765409
334.9000	0.00762932
334.8000	0.00760417
334.7000	0.00757883
334.6000	0.00760094
334.5000	0.0075742
334.4000	0.0074994
334.3000	0.00752589
334.2000	0.00740291
334.1000	0.00742705
334.0000	0.00742711
333.9000	0.00737908
333.8000	0.00732786
333.7000	0.00740084
333.6000	0.00745012
333.5000	0.00744996
333.4000	0.00737599
333.3000	0.00734957
333.2000	0.00742478
333.1000	0.00737694
333.0000	0.00732846
332.9000	0.0073517
332.8000	0.00734969
332.7000	0.00720132
332.6000	0.00722615
332.5000	0.0071758
332.4000	0.0072229
332.3000	0.00729473
332.2000	0.00729362
332.1000	0.00726958
332.0000	0.00719384
331.9000	0.00721693
331.8000	0.00721423
331.7000	0.00719013
331.6000	0.00718872
331.5000	0.00713868
331.4000	0.00708852
331.3000	0.00698996
331.2000	0.00694105
331.1000	0.00696445
331.0000	0.00693996
330.9000	0.00691363
330.8000	0.00691384
330.7000	0.00684017
330.6000	0.00683923
330.5000	0.0068638
330.4000	0.00684111
330.3000	0.00681455
330.2000	0.00678978
330.1000	0.00686198
330.0000	0.00686024
329.9000	0.00695624
329.8000	0.00690685
329.7000	0.00688266
329.6000	0.00688325
329.5000	0.00688305
329.4000	0.0068312
329.3000	0.00692901
329.2000	0.00675689
329.1000	0.00677991
329.0000	0.00675641
328.9000	0.00665585
328.8000	0.00665219
328.7000	0.00660378
328.6000	0.0065554
328.5000	0.00648199
328.4000	0.00645661
328.3000	0.00635771
328.2000	0.00640584
328.1000	0.00635641
328.0000	0.00635585
327.9000	0.00635503
327.8000	0.00633071
327.7000	0.0062085
327.6000	0.00635385
327.5000	0.00630492
327.4000	0.00625404
327.3000	0.00622826
327.2000	0.00617965
327.1000	0.00613098
327.0000	0.00615549
326.9000	0.00610647
326.8000	0.00610652
326.7000	0.00615677
326.6000	0.00608342
326.5000	0.00613215
326.4000	0.00610665
326.3000	0.00610546
326.2000	0.0060807
326.1000	0.00608072
326.0000	0.00603206
325.9000	0.00603036
325.8000	0.00610268
325.7000	0.00612731
325.6000	0.00615086
325.5000	0.00620009
325.4000	0.00619744
325.3000	0.00624558
325.2000	0.00621992
325.1000	0.00616759
325.0000	0.00621407
324.9000	0.00623821
324.8000	0.0062137
324.7000	0.00611606
324.6000	0.00618868
324.5000	0.00613863
324.4000	0.00606405
324.3000	0.00608919
324.2000	0.00606557
324.1000	0.00604111
324.0000	0.00601863
323.9000	0.00596795
323.8000	0.00594467
323.7000	0.00589338
323.6000	0.0058203
323.5000	0.00574798
323.4000	0.00567674
323.3000	0.00560262
323.2000	0.00560007
323.1000	0.0056729
323.0000	0.00555138
322.9000	0.00560106
322.8000	0.00552664
322.7000	0.00547694
322.6000	0.00545079
322.5000	0.00539985
322.4000	0.00532412
322.3000	0.00529939
322.2000	0.00520257
322.1000	0.00525243
322.0000	0.0052518
321.9000	0.00520059
321.8000	0.00517374
321.7000	0.00517514
321.6000	0.00512667
321.5000	0.0050762
321.4000	0.00512388
321.3000	0.00509774
321.2000	0.00507424
321.1000	0.0050249
321.0000	0.00495172
320.9000	0.00495324
320.8000	0.00495238
320.7000	0.00495314
320.6000	0.00502604
320.5000	0.00492775
320.4000	0.00490326
320.3000	0.00495311
320.2000	0.00502616
320.1000	0.00502522
320.0000	0.00497781
319.9000	0.00490533
319.8000	0.00495349
319.7000	0.00493011
319.6000	0.00495494
319.5000	0.00493005
319.4000	0.00495448
319.3000	0.00500217
319.2000	0.00505203
319.1000	0.00500274
319.0000	0.00495335
318.9000	0.00492815
318.8000	0.00487833
318.7000	0.00482824
318.6000	0.0047558
318.5000	0.0047548
318.4000	0.0048272
318.3000	0.00485223
318.2000	0.00482877
318.1000	0.00477907
318.0000	0.00485232
317.9000	0.00487672
317.8000	0.00485301
317.7000	0.00472945
317.6000	0.00470424
317.5000	0.00472778
317.4000	0.00472574
317.3000	0.00467889
317.2000	0.00477698
317.1000	0.00487653
317.0000	0.00480351
316.9000	0.00473004
316.8000	0.00468281
316.7000	0.00465804
316.6000	0.00465689
316.5000	0.00470529
316.4000	0.00465559
316.3000	0.00463226
316.2000	0.00460631
316.1000	0.00460779
316.0000	0.00456056
315.9000	0.00453653
315.8000	0.00448793
315.7000	0.00453636
315.6000	0.00441396
315.5000	0.00431716
315.4000	0.00436496
315.3000	0.00438839
315.2000	0.00443495
315.1000	0.00441024
315.0000	0.00438785
314.9000	0.00436348
314.8000	0.00438708
314.7000	0.00441121
314.6000	0.0043886
314.5000	0.00436455
314.4000	0.00438719
314.3000	0.00443568
314.2000	0.00448483
314.1000	0.00446066
314.0000	0.0044847
313.9000	0.00445837
313.8000	0.00443281
313.7000	0.00445645
313.6000	0.00443307
313.5000	0.00443328
313.4000	0.00440684
313.3000	0.00438144
313.2000	0.00428424
313.1000	0.00428221
313.0000	0.0043041
312.9000	0.00437676
312.8000	0.00430194
312.7000	0.00427844
312.6000	0.00430211
312.5000	0.00434919
312.4000	0.00432346
312.3000	0.00434678
312.2000	0.00437103
312.1000	0.00429747
312.0000	0.00429508
311.9000	0.00429389
311.8000	0.00417323
311.7000	0.00417263
311.6000	0.00414857
311.5000	0.00405081
311.4000	0.00404941
311.3000	0.0040485
311.2000	0.00412302
311.1000	0.00404943
311.0000	0.00402452
310.9000	0.00392603
310.8000	0.0039266
310.7000	0.00392731
310.6000	0.0039047
310.5000	0.00390573
310.4000	0.0038583
310.3000	0.00390684
310.2000	0.00395332
310.1000	0.00395341
310.0000	0.00402566
309.9000	0.0041225
309.8000	0.0040519
309.7000	0.00400224
309.6000	0.00392815
309.5000	0.00399958
309.4000	0.00397628
309.3000	0.00400086
309.2000	0.00395315
309.1000	0.00392701
309.0000	0.00392373
308.9000	0.00394717
308.8000	0.00394555
308.7000	0.00389521
308.6000	0.00382164
308.5000	0.00379513
308.4000	0.00376989
308.3000	0.00364782
308.2000	0.0036216
308.1000	0.00362128
308.0000	0.00362134
307.9000	0.00362127
307.8000	0.00357258
307.7000	0.00359586
307.6000	0.00361925
307.5000	0.00366723
307.4000	0.00364263
307.3000	0.00359469
307.2000	0.00357049
307.1000	0.0035225
307.0000	0.00361792
306.9000	0.00359374
306.8000	0.00352189
306.7000	0.00349774
306.6000	0.00352179
306.5000	0.00344951
306.4000	0.00344852
306.3000	0.00339992
306.2000	0.00340073
306.1000	0.00332895
306.0000	0.00325682
305.9000	0.00323227
305.8000	0.00320883
305.7000	0.00325585
305.6000	0.00335126
305.5000	0.0033273
305.4000	0.00325537
305.3000	0.00323168
305.2000	0.00330261
305.1000	0.00332599
305.0000	0.00327781
304.9000	0.00330112
304.8000	0.00330151
304.7000	0.00320611
304.6000	0.00313339
304.5000	0.00313234
304.4000	0.00327511
304.3000	0.00325128
304.2000	0.00325136
304.1000	0.00325098
304.0000	0.00310749
303.9000	0.00308324
303.8000	0.00310681
303.7000	0.00308306
303.6000	0.0030584
303.5000	0.00305831
303.4000	0.00310563
303.3000	0.00310651
303.2000	0.00310583
303.1000	0.00320105
303.0000	0.00324895
302.9000	0.00327303
302.8000	0.00322513
302.7000	0.00322413
302.6000	0.00324706
302.5000	0.0032232
302.4000	0.00324714
302.3000	0.00327128
302.2000	0.0032703
302.1000	0.00331692
302.0000	0.0033408
301.9000	0.00331669
301.8000	0.00324503
301.7000	0.00326738
301.6000	0.00319553
301.5000	0.00317101
301.4000	0.00319415
301.3000	0.00317064
301.2000	0.00309891
301.1000	0.00309916
301.0000	0.00307499
300.9000	0.00300294
300.8000	0.00297897
300.7000	0.00304951
300.6000	0.00304973
300.5000	0.00300192
300.4000	0.00295437
300.3000	0.00300179
300.2000	0.00297773
300.1000	0.00290719
300.0000	0.00295459
299.9000	0.00293085
299.8000	0.00290724
299.7000	0.00281151
299.6000	0.00283518
299.5000	0.00274016
299.4000	0.00269266
299.3000	0.00274086
299.2000	0.00274088
299.1000	0.00264565
299.0000	0.00255028
298.9000	0.00255075
298.8000	0.00257426
298.7000	0.00257386
298.6000	0.00259742
298.5000	0.0026202
298.4000	0.00261999
298.3000	0.00266708
298.2000	0.00261932
298.1000	0.00273736
298.0000	0.00273754
297.9000	0.00283281
297.8000	0.00285625
297.7000	0.00283149
297.6000	0.00280727
297.5000	0.00276015
297.4000	0.0028314
297.3000	0.00278287
297.2000	0.00271178
297.1000	0.00268777
297.0000	0.00266383
296.9000	0.00259278
296.8000	0.00256887
296.7000	0.0024736
296.6000	0.00244964
296.5000	0.00235474
296.4000	0.00233039
296.3000	0.00228229
296.2000	0.00228183
296.1000	0.00225849
296.0000	0.00225809
295.9000	0.00228115
295.8000	0.00228059
295.7000	0.00230468
295.6000	0.00225737
295.5000	0.00221019
295.4000	0.00223312
295.3000	0.00228066
295.2000	0.00228041
295.1000	0.00228086
295.0000	0.00232774
294.9000	0.00237575
294.8000	0.0023049
294.7000	0.00225767
294.6000	0.00225745
294.5000	0.0022573
294.4000	0.00223344
294.3000	0.00225719
294.2000	0.00221068
294.1000	0.00213949
294.0000	0.00216294
293.9000	0.00213875
293.8000	0.00211461
293.7000	0.00211427
293.6000	0.00209077
293.5000	0.00211417
293.4000	0.00206682
293.3000	0.00199543
293.2000	0.001995
293.1000	0.0020184
293.0000	0.00194756
292.9000	0.00194693
292.8000	0.00197044
292.7000	0.0019229
292.6000	0.0019224
292.5000	0.00199385
292.4000	0.0020172
292.3000	0.0020407
292.2000	0.00204116
292.1000	0.00199331
292.0000	0.00196946
291.9000	0.00185072
291.8000	0.00187433
291.7000	0.00189781
291.6000	0.00185026
291.5000	0.00180232
291.4000	0.00180202
291.3000	0.0017548
291.2000	0.00173132
291.1000	0.00168458
291.0000	0.00161326
290.9000	0.00156506
290.8000	0.00151771
290.7000	0.00149486
290.6000	0.0014955
290.5000	0.00149555
290.4000	0.0015192
290.3000	0.00156633
290.2000	0.00149521
290.1000	0.00149487
290.0000	0.00161347
289.9000	0.00163784
289.8000	0.00163775
289.7000	0.0015902
289.6000	0.00158987
289.5000	0.00158868
289.4000	0.00163624
289.3000	0.00163665
289.2000	0.00163603
289.1000	0.00161136
289.0000	0.00158724
288.9000	0.00158714
288.8000	0.00149213
288.7000	0.00149286
288.6000	0.00154068
288.5000	0.00154092
288.4000	0.0015175
288.3000	0.00151748
288.2000	0.00154143
288.1000	0.00156553
288.0000	0.00156585
287.9000	0.00156646
287.8000	0.00156591
287.7000	0.00158922
287.6000	0.00154226
287.5000	0.00156653
287.4000	0.00156696
287.3000	0.00149578
287.2000	0.0014953
287.1000	0.00149489
287.0000	0.00151795
286.9000	0.00144642
286.8000	0.00137545
286.7000	0.00135148
286.6000	0.00132762
286.5000	0.00127983
286.4000	0.00127895
286.3000	0.00137378
286.2000	0.00130243
286.1000	0.00125503
286.0000	0.00127906
285.9000	0.00127888
285.8000	0.0013253
285.7000	0.00134915
285.6000	0.00139635
285.5000	0.00134875
285.4000	0.00123066
285.3000	0.00125427
285.2000	0.00130155
285.1000	0.00132528
285.0000	0.0013018
284.9000	0.00134876
284.8000	0.00132571
284.7000	0.0012069
284.6000	0.00125511
284.5000	0.00123143
284.4000	0.00118344
284.3000	0.00115936
284.2000	0.00108851
284.1000	0.00113626
284.0000	0.0011369
283.9000	0.00116032
283.8000	0.00120755
283.7000	0.00120761
283.6000	0.0011363
283.5000	0.00111201
283.4000	0.00115968
283.3000	0.00113626
283.2000	0.00111201
283.1000	0.00113558
283.0000	0.00115902
282.9000	0.00118287
282.8000	0.00127746
282.7000	0.00125386
282.6000	0.00120612
282.5000	0.00118192
282.4000	0.00120535
282.3000	0.00120608
282.2000	0.00118228
282.1000	0.0011828
282.0000	0.00120637
281.9000	0.00115927
281.8000	0.00111094
281.7000	0.00115827
281.6000	0.00113558
281.5000	0.00111203
281.4000	0.00108793
281.3000	0.00106376
281.2000	0.00099298
281.1000	0.000992796
281.0000	0.000993295
280.9000	0.00101712
280.8000	0.000993952
280.7000	0.000969961
280.6000	0.000993434
280.5000	0.000992994
280.4000	0.000992933
280.3000	0.000992777
280.2000	0.000945506
280.1000	0.000897956
280.0000	0.000921071
279.9000	0.000944732
279.8000	0.000873576
279.7000	0.000850181
279.6000	0.000849837
279.5000	0.000825881
279.4000	0.000896503
279.3000	0.000920212
279.2000	0.000872566
279.1000	0.000895566
279.0000	0.000847857
278.9000	0.00080015
278.8000	0.000728477
278.7000	0.00075219
278.6000	0.000847273
278.5000	0.000895023
278.4000	0.000847681
278.3000	0.000823207
278.2000	0.000918141
278.1000	0.000941958
278.0000	0.000989781
277.9000	0.00103728
277.8000	0.00101402
277.7000	0.000919357
277.6000	0.00091866
277.5000	0.000894732
277.4000	0.000965627
277.3000	0.000989933
277.2000	0.00101452
277.1000	0.0010388
277.0000	0.000967499
276.9000	0.000872315
276.8000	0.000919382
276.7000	0.000896556
276.6000	0.00089661
276.5000	0.000896573
276.4000	0.000848861
276.3000	0.00084858
276.2000	0.000824704
276.1000	0.000895999
276.0000	0.00092041
275.9000	0.000944575
275.8000	0.000945052
275.7000	0.000968441
275.6000	0.000991344
275.5000	0.000943437
275.4000	0.000895693
275.3000	0.000967274
275.2000	0.000943685
275.1000	0.000967072
275.0000	0.000966361
274.9000	0.00101329
274.8000	0.000989663
274.7000	0.000895081
274.6000	0.000894118
274.5000	0.00084665
274.4000	0.00079946
274.3000	0.000799826
274.2000	0.000752484
274.1000	0.000751992
274.0000	0.000751897
273.9000	0.000798535
273.8000	0.000893314
273.7000	0.000869494
273.6000	0.000869484
273.5000	0.000892889
273.4000	0.000869326
273.3000	0.000797861
273.2000	0.000798047
273.1000	0.000845385
273.0000	0.000869136
272.9000	0.000939679
272.8000	0.000986518
272.7000	0.000962753
272.6000	0.000938978
272.5000	0.000891631
272.4000	0.000915785
272.3000	0.000893162
272.2000	0.000846141
272.1000	0.000845875
272.0000	0.000869146
271.9000	0.000821443
271.8000	0.000750696
271.7000	0.000750988
271.6000	0.000797775
271.5000	0.000797739
271.4000	0.000774203
271.3000	0.000703494
271.2000	0.000703467
271.1000	0.000773867
271.0000	0.000844263
270.9000	0.0008685
270.8000	0.000844692
270.7000	0.000796191
270.6000	0.000818914
270.5000	0.000842319
270.4000	0.000819096
270.3000	0.000843488
270.2000	0.000890734
270.1000	0.000890493
270.0000	0.000819599
269.9000	0.000772103
269.8000	0.000772864
269.7000	0.000749054
269.6000	0.000725331
269.5000	0.000654635
269.4000	0.000584077
269.3000	0.00058341
269.2000	0.000583293
269.1000	0.000630764
269.0000	0.000631687
268.9000	0.000608173
268.8000	0.000584327
268.7000	0.000607762
268.6000	0.000537176
268.5000	0.000537545
268.4000	0.000561349
268.3000	0.00060832
268.2000	0.00063155
268.1000	0.000608157
268.0000	0.000584713
267.9000	0.000561384
267.8000	0.000608756
267.7000	0.000608958
267.6000	0.000608984
267.5000	0.000585902
267.4000	0.00053783
267.3000	0.000537913
267.2000	0.000514749
267.1000	0.000490886
267.0000	0.000561296
266.9000	0.000631458
266.8000	0.000678964
266.7000	0.000703334
266.6000	0.00065637
266.5000	0.000679757
266.4000	0.000679341
266.3000	0.000702201
266.2000	0.000678297
266.1000	0.000654519
266.0000	0.000654329
265.9000	0.000630462
265.8000	0.000655032
265.7000	0.000654985
265.6000	0.000701788
265.5000	0.000701725
265.4000	0.000677961
265.3000	0.000655138
265.2000	0.00058397
265.1000	0.000559893
265.0000	0.000583338
264.9000	0.000583531
264.8000	0.000536584
264.7000	0.000513073
264.6000	0.000489674
264.5000	0.000513522
264.4000	0.000489979
264.3000	0.000490315
264.2000	0.000442591
264.1000	0.000441786
264.0000	0.00044186
263.9000	0.000465882
263.8000	0.000489824
263.7000	0.000489429
263.6000	0.0005364
263.5000	0.000536943
263.4000	0.000537809
263.3000	0.00053767
263.2000	0.000584835
263.1000	0.000608727
263.0000	0.0006558
262.9000	0.000632335
262.8000	0.000632691
262.7000	0.000632978
262.6000	0.00068033
262.5000	0.000681107
262.4000	0.000680821
262.3000	0.000656784
262.2000	0.000633554
262.1000	0.00061012
262.0000	0.000586852
261.9000	0.000586546
261.8000	0.000585435
261.7000	0.000631968
261.6000	0.000679244
261.5000	0.000703432
261.4000	0.000680054
261.3000	0.00070339
261.2000	0.000703024
261.1000	0.00072633
261.0000	0.000702864
260.9000	0.000678988
260.8000	0.000656028
260.7000	0.000632704
260.6000	0.000679186
260.5000	0.000679467
260.4000	0.000679229
260.3000	0.000703165
260.2000	0.000703371
260.1000	0.000703939
260.0000	0.000704123
259.9000	0.000680158
259.8000	0.000680111
259.7000	0.000703997
259.6000	0.000750838
259.5000	0.000750617
259.4000	0.000774652
259.3000	0.000751404
259.2000	0.000775074
259.1000	0.000797749
259.0000	0.000751011
258.9000	0.000774335
258.8000	0.00079805
258.7000	0.00079736
258.6000	0.000821882
258.5000	0.000774485
258.4000	0.000679224
258.3000	0.000702515
258.2000	0.000749928
258.1000	0.000702646
258.0000	0.000632794
257.9000	0.000585465
257.8000	0.00058485
257.7000	0.000655133
257.6000	0.000678069
257.5000	0.000702704
257.4000	0.000702663
257.3000	0.000655831
257.2000	0.000608606
257.1000	0.000609265
257.0000	0.000561159
256.9000	0.000584367
256.8000	0.000679904
256.7000	0.00065684
256.6000	0.000632875
256.5000	0.000656137
256.4000	0.00065569
256.3000	0.000702435
256.2000	0.00070282
256.1000	0.000680518
256.0000	0.000657402
255.9000	0.000633998
255.8000	0.00065736
255.7000	0.000704167
255.6000	0.000775247
255.5000	0.00075113
255.4000	0.00075137
255.3000	0.000775622
255.2000	0.000751825
255.1000	0.000798941
255.0000	0.000775598
254.9000	0.000776221
254.8000	0.000799487
254.7000	0.000799892
254.6000	0.000776142
254.5000	0.000775908
254.4000	0.000799406
254.3000	0.000799478
254.2000	0.000776002
254.1000	0.000729161
254.0000	0.000682326
253.9000	0.000658938
253.8000	0.000682253
253.7000	0.000659092
253.6000	0.000659037
253.5000	0.000587786
253.4000	0.000588294
253.3000	0.000611974
253.2000	0.000636282
253.1000	0.000636338
253.0000	0.000731466
252.9000	0.000707235
252.8000	0.000659815
252.7000	0.000659999
252.6000	0.000612547
252.5000	0.00065939
252.4000	0.000682877
252.3000	0.000706924
252.2000	0.000707374
252.1000	0.000754297
252.0000	0.000730435
251.9000	0.000731212
251.8000	0.000754079
251.7000	0.000706179
251.6000	0.000729672
251.5000	0.00075386
251.4000	0.00068196
251.3000	0.000705938
251.2000	0.000730058
251.1000	0.000706172
251.0000	0.000777453
250.9000	0.000777874
250.8000	0.000753809
250.7000	0.000824433
250.6000	0.000800551
250.5000	0.000753039
250.4000	0.000777081
250.3000	0.00075295
250.2000	0.000752792
250.1000	0.000824202
250.0000	0.000776956
