TITLE	13.4_NP_0
DATA TYPE	ULTRAVIOLET SPECTRUM
ORIGIN	JASCO
OWNER	
DATE	21/05/03
TIME	15:44:41
SPECTROMETER/DATA SYSTEM	
RESOLUTION	
DELTAX	-0.1
XUNITS	NANOMETERS
YUNITS	TRANSMITTANCE
FIRSTX	  850.0000
LASTX	  250.0000
NPOINTS	    6001
FIRSTY	    80.06908
MAXY	    82.79156
MINY	     0.00064
XYDATA
850.0000	80.0691
849.9000	80.1738
849.8000	80.283
849.7000	80.3796
849.6000	80.4791
849.5000	80.5765
849.4000	80.6704
849.3000	80.7673
849.2000	80.8652
849.1000	80.9559
849.0000	81.0517
848.9000	81.139
848.8000	81.2045
848.7000	81.2858
848.6000	81.3671
848.5000	81.4507
848.4000	81.5253
848.3000	81.6013
848.2000	81.6747
848.1000	81.74
848.0000	81.8132
847.9000	81.8843
847.8000	81.9497
847.7000	82.0198
847.6000	82.0692
847.5000	82.1264
847.4000	82.1841
847.3000	82.2504
847.2000	82.3149
847.1000	82.3853
847.0000	82.4306
846.9000	82.4679
846.8000	82.5217
846.7000	82.5639
846.6000	82.5985
846.5000	82.6381
846.4000	82.6746
846.3000	82.6998
846.2000	82.73
846.1000	82.7489
846.0000	82.7749
845.9000	82.7889
845.8000	82.79
845.7000	82.7906
845.6000	82.7883
845.5000	82.7869
845.4000	82.7916
845.3000	82.7866
845.2000	82.7689
845.1000	82.7547
845.0000	82.7385
844.9000	82.7261
844.8000	82.7053
844.7000	82.6899
844.6000	82.6566
844.5000	82.6296
844.4000	82.5917
844.3000	82.5624
844.2000	82.5328
844.1000	82.4954
844.0000	82.452
843.9000	82.398
843.8000	82.3456
843.7000	82.3005
843.6000	82.25
843.5000	82.1994
843.4000	82.1483
843.3000	82.0832
843.2000	82.0236
843.1000	81.9523
843.0000	81.891
842.9000	81.8177
842.8000	81.753
842.7000	81.6737
842.6000	81.5978
842.5000	81.5157
842.4000	81.4346
842.3000	81.3526
842.2000	81.2681
842.1000	81.179
842.0000	81.0925
841.9000	80.9924
841.8000	80.8971
841.7000	80.8045
841.6000	80.7048
841.5000	80.6047
841.4000	80.5019
841.3000	80.4005
841.2000	80.2939
841.1000	80.188
841.0000	80.0743
840.9000	79.9646
840.8000	79.8559
840.7000	79.739
840.6000	79.6275
840.5000	79.5113
840.4000	79.4011
840.3000	79.2871
840.2000	79.1706
840.1000	79.0447
840.0000	78.9224
839.9000	78.8083
839.8000	78.6846
839.7000	78.5629
839.6000	78.4441
839.5000	78.3185
839.4000	78.1968
839.3000	78.0746
839.2000	77.9506
839.1000	77.826
839.0000	77.7058
838.9000	77.5744
838.8000	77.4372
838.7000	77.3165
838.6000	77.1854
838.5000	77.0619
838.4000	76.9319
838.3000	76.797
838.2000	76.6746
838.1000	76.5519
838.0000	76.4195
837.9000	76.2897
837.8000	76.1678
837.7000	76.0472
837.6000	75.9346
837.5000	75.8219
837.4000	75.6936
837.3000	75.5843
837.2000	75.4722
837.1000	75.3603
837.0000	75.2505
836.9000	75.1366
836.8000	75.0309
836.7000	74.9264
836.6000	74.8184
836.5000	74.7034
836.4000	74.5956
836.3000	74.4956
836.2000	74.3886
836.1000	74.2918
836.0000	74.1903
835.9000	74.0949
835.8000	74.0045
835.7000	73.9032
835.6000	73.8064
835.5000	73.709
835.4000	73.6143
835.3000	73.5358
835.2000	73.4563
835.1000	73.3767
835.0000	73.2913
834.9000	73.2226
834.8000	73.1579
834.7000	73.0904
834.6000	73.0284
834.5000	72.961
834.4000	72.8977
834.3000	72.8328
834.2000	72.7732
834.1000	72.7218
834.0000	72.6809
833.9000	72.6334
833.8000	72.5892
833.7000	72.5466
833.6000	72.5013
833.5000	72.4591
833.4000	72.4268
833.3000	72.3825
833.2000	72.35
833.1000	72.3182
833.0000	72.2863
832.9000	72.2604
832.8000	72.2354
832.7000	72.2133
832.6000	72.1936
832.5000	72.1782
832.4000	72.1573
832.3000	72.1506
832.2000	72.1455
832.1000	72.1369
832.0000	72.1306
831.9000	72.1256
831.8000	72.1272
831.7000	72.1386
831.6000	72.1474
831.5000	72.152
831.4000	72.1693
831.3000	72.1822
831.2000	72.1988
831.1000	72.2176
831.0000	72.2424
830.9000	72.2687
830.8000	72.3001
830.7000	72.3301
830.6000	72.3628
830.5000	72.4009
830.4000	72.4414
830.3000	72.4849
830.2000	72.5277
830.1000	72.5772
830.0000	72.6164
829.9000	72.6811
829.8000	72.7333
829.7000	72.7878
829.6000	72.8483
829.5000	72.91
829.4000	72.979
829.3000	73.0434
829.2000	73.1083
829.1000	73.1837
829.0000	73.2631
828.9000	73.3408
828.8000	73.4227
828.7000	73.5097
828.6000	73.5952
828.5000	73.6858
828.4000	73.7796
828.3000	73.8662
828.2000	73.9633
828.1000	74.0567
828.0000	74.1573
827.9000	74.2646
827.8000	74.3572
827.7000	74.4668
827.6000	74.5774
827.5000	74.6746
827.4000	74.7748
827.3000	74.8781
827.2000	74.9841
827.1000	75.0923
827.0000	75.2068
826.9000	75.3091
826.8000	75.4241
826.7000	75.5384
826.6000	75.6519
826.5000	75.7755
826.4000	75.8932
826.3000	76.015
826.2000	76.1299
826.1000	76.2372
826.0000	76.3526
825.9000	76.4762
825.8000	76.6033
825.7000	76.7224
825.6000	76.8447
825.5000	76.9685
825.4000	77.0917
825.3000	77.2253
825.2000	77.3496
825.1000	77.4691
825.0000	77.5937
824.9000	77.7136
824.8000	77.8289
824.7000	77.9463
824.6000	78.0789
824.5000	78.2053
824.4000	78.336
824.3000	78.4583
824.2000	78.5761
824.1000	78.6998
824.0000	78.8188
823.9000	78.9373
823.8000	79.0539
823.7000	79.1622
823.6000	79.2739
823.5000	79.3861
823.4000	79.4892
823.3000	79.5981
823.2000	79.7125
823.1000	79.8155
823.0000	79.9203
822.9000	80.0301
822.8000	80.1186
822.7000	80.2199
822.6000	80.3182
822.5000	80.4149
822.4000	80.5098
822.3000	80.5984
822.2000	80.6852
822.1000	80.7745
822.0000	80.8563
821.9000	80.941
821.8000	81.0239
821.7000	81.1038
821.6000	81.1787
821.5000	81.2513
821.4000	81.3228
821.3000	81.384
821.2000	81.452
821.1000	81.5165
821.0000	81.5784
820.9000	81.6323
820.8000	81.6838
820.7000	81.7484
820.6000	81.7981
820.5000	81.8442
820.4000	81.8864
820.3000	81.9222
820.2000	81.9608
820.1000	81.9888
820.0000	82.0202
819.9000	82.0473
819.8000	82.0637
819.7000	82.088
819.6000	82.1058
819.5000	82.1122
819.4000	82.1143
819.3000	82.1217
819.2000	82.1228
819.1000	82.1069
819.0000	82.0992
818.9000	82.0918
818.8000	82.0875
818.7000	82.0751
818.6000	82.0532
818.5000	82.0401
818.4000	82.0151
818.3000	81.9886
818.2000	81.9527
818.1000	81.9129
818.0000	81.8749
817.9000	81.8322
817.8000	81.7886
817.7000	81.7372
817.6000	81.6855
817.5000	81.6303
817.4000	81.5696
817.3000	81.4984
817.2000	81.4301
817.1000	81.3685
817.0000	81.3024
816.9000	81.2247
816.8000	81.1424
816.7000	81.0564
816.6000	80.9763
816.5000	80.8937
816.4000	80.8068
816.3000	80.7155
816.2000	80.6257
816.1000	80.5342
816.0000	80.4347
815.9000	80.3331
815.8000	80.2281
815.7000	80.1331
815.6000	80.0328
815.5000	79.9218
815.4000	79.8075
815.3000	79.691
815.2000	79.5776
815.1000	79.465
815.0000	79.3465
814.9000	79.2289
814.8000	79.1076
814.7000	78.9894
814.6000	78.862
814.5000	78.7348
814.4000	78.6124
814.3000	78.488
814.2000	78.3671
814.1000	78.2342
814.0000	78.0984
813.9000	77.968
813.8000	77.8348
813.7000	77.7046
813.6000	77.5711
813.5000	77.4412
813.4000	77.3109
813.3000	77.1762
813.2000	77.0419
813.1000	76.9135
813.0000	76.7827
812.9000	76.6506
812.8000	76.5165
812.7000	76.3837
812.6000	76.2465
812.5000	76.1128
812.4000	75.9814
812.3000	75.8478
812.2000	75.7212
812.1000	75.5955
812.0000	75.47
811.9000	75.3445
811.8000	75.2186
811.7000	75.094
811.6000	74.9714
811.5000	74.8455
811.4000	74.7303
811.3000	74.6113
811.2000	74.4977
811.1000	74.3857
811.0000	74.274
810.9000	74.1622
810.8000	74.0471
810.7000	73.93
810.6000	73.8254
810.5000	73.7174
810.4000	73.6068
810.3000	73.498
810.2000	73.3976
810.1000	73.2965
810.0000	73.2003
809.9000	73.0961
809.8000	73
809.7000	72.9069
809.6000	72.8177
809.5000	72.7275
809.4000	72.6495
809.3000	72.5706
809.2000	72.4908
809.1000	72.426
809.0000	72.3475
808.9000	72.2719
808.8000	72.2091
808.7000	72.1452
808.6000	72.0837
808.5000	72.0261
808.4000	71.9729
808.3000	71.9225
808.2000	71.8654
808.1000	71.8175
808.0000	71.7723
807.9000	71.7242
807.8000	71.6813
807.7000	71.6453
807.6000	71.6167
807.5000	71.5815
807.4000	71.5531
807.3000	71.5342
807.2000	71.5103
807.1000	71.4871
807.0000	71.4753
806.9000	71.461
806.8000	71.4428
806.7000	71.438
806.6000	71.4453
806.5000	71.4455
806.4000	71.4429
806.3000	71.4545
806.2000	71.4611
806.1000	71.4751
806.0000	71.4938
805.9000	71.5113
805.8000	71.5319
805.7000	71.5547
805.6000	71.5814
805.5000	71.6205
805.4000	71.6544
805.3000	71.6916
805.2000	71.7373
805.1000	71.7845
805.0000	71.8264
804.9000	71.8798
804.8000	71.938
804.7000	71.9938
804.6000	72.0558
804.5000	72.1134
804.4000	72.1735
804.3000	72.2412
804.2000	72.3136
804.1000	72.384
804.0000	72.4597
803.9000	72.5415
803.8000	72.6169
803.7000	72.7015
803.6000	72.7848
803.5000	72.8657
803.4000	72.957
803.3000	73.0466
803.2000	73.1388
803.1000	73.2396
803.0000	73.3323
802.9000	73.4325
802.8000	73.5398
802.7000	73.6436
802.6000	73.7522
802.5000	73.8621
802.4000	73.9826
802.3000	74.0914
802.2000	74.2056
802.1000	74.3259
802.0000	74.4486
801.9000	74.5728
801.8000	74.6944
801.7000	74.8152
801.6000	74.939
801.5000	75.0592
801.4000	75.1924
801.3000	75.3226
801.2000	75.4513
801.1000	75.5828
801.0000	75.7156
800.9000	75.8496
800.8000	75.9773
800.7000	76.1091
800.6000	76.2417
800.5000	76.3744
800.4000	76.503
800.3000	76.6343
800.2000	76.7604
800.1000	76.8922
800.0000	77.0241
799.9000	77.1618
799.8000	77.289
799.7000	77.4196
799.6000	77.5487
799.5000	77.6804
799.4000	77.8031
799.3000	77.9359
799.2000	78.0615
799.1000	78.1886
799.0000	78.3164
798.9000	78.435
798.8000	78.5646
798.7000	78.6877
798.6000	78.8134
798.5000	78.9325
798.4000	79.0521
798.3000	79.1601
798.2000	79.2755
798.1000	79.3877
798.0000	79.4936
797.9000	79.6023
797.8000	79.7073
797.7000	79.8066
797.6000	79.9066
797.5000	80.0014
797.4000	80.0926
797.3000	80.1938
797.2000	80.282
797.1000	80.3748
797.0000	80.4581
796.9000	80.543
796.8000	80.6202
796.7000	80.6999
796.6000	80.7712
796.5000	80.8374
796.4000	80.9048
796.3000	80.9598
796.2000	81.0196
796.1000	81.0691
796.0000	81.1222
795.9000	81.1709
795.8000	81.2132
795.7000	81.2416
795.6000	81.2734
795.5000	81.2967
795.4000	81.3243
795.3000	81.3432
795.2000	81.3604
795.1000	81.3761
795.0000	81.3901
794.9000	81.398
794.8000	81.4026
794.7000	81.4015
794.6000	81.3976
794.5000	81.3945
794.4000	81.3778
794.3000	81.3537
794.2000	81.3366
794.1000	81.316
794.0000	81.2889
793.9000	81.2604
793.8000	81.2204
793.7000	81.182
793.6000	81.141
793.5000	81.0937
793.4000	81.0427
793.3000	80.9863
793.2000	80.9276
793.1000	80.8779
793.0000	80.8095
792.9000	80.7372
792.8000	80.6663
792.7000	80.5951
792.6000	80.5212
792.5000	80.432
792.4000	80.3459
792.3000	80.2545
792.2000	80.1664
792.1000	80.0779
792.0000	79.9812
791.9000	79.8803
791.8000	79.7759
791.7000	79.6724
791.6000	79.5641
791.5000	79.447
791.4000	79.3367
791.3000	79.2245
791.2000	79.1008
791.1000	78.9852
791.0000	78.8611
790.9000	78.7412
790.8000	78.6159
790.7000	78.4919
790.6000	78.3601
790.5000	78.2234
790.4000	78.0933
790.3000	77.9587
790.2000	77.8175
790.1000	77.6835
790.0000	77.5462
789.9000	77.405
789.8000	77.2607
789.7000	77.1161
789.6000	76.9813
789.5000	76.8384
789.4000	76.6919
789.3000	76.5482
789.2000	76.4034
789.1000	76.258
789.0000	76.1155
788.9000	75.9717
788.8000	75.8232
788.7000	75.6763
788.6000	75.5391
788.5000	75.3938
788.4000	75.2498
788.3000	75.1084
788.2000	74.9722
788.1000	74.8344
788.0000	74.6989
787.9000	74.5579
787.8000	74.4251
787.7000	74.2921
787.6000	74.1536
787.5000	74.0218
787.4000	73.8893
787.3000	73.7622
787.2000	73.6357
787.1000	73.5169
787.0000	73.3908
786.9000	73.2686
786.8000	73.145
786.7000	73.0302
786.6000	72.9174
786.5000	72.8056
786.4000	72.6853
786.3000	72.5762
786.2000	72.4731
786.1000	72.3691
786.0000	72.2716
785.9000	72.175
785.8000	72.0854
785.7000	71.9929
785.6000	71.906
785.5000	71.8148
785.4000	71.7274
785.3000	71.6506
785.2000	71.5795
785.1000	71.5064
785.0000	71.432
784.9000	71.3583
784.8000	71.2979
784.7000	71.2387
784.6000	71.1768
784.5000	71.1216
784.4000	71.0741
784.3000	71.0243
784.2000	70.9738
784.1000	70.9298
784.0000	70.8856
783.9000	70.8539
783.8000	70.8217
783.7000	70.7851
783.6000	70.7564
783.5000	70.7278
783.4000	70.7118
783.3000	70.7022
783.2000	70.6883
783.1000	70.6766
783.0000	70.6735
782.9000	70.6719
782.8000	70.6677
782.7000	70.671
782.6000	70.6768
782.5000	70.6882
782.4000	70.7091
782.3000	70.7275
782.2000	70.7483
782.1000	70.7767
782.0000	70.8092
781.9000	70.8465
781.8000	70.8795
781.7000	70.9138
781.6000	70.9573
781.5000	71.0049
781.4000	71.05
781.3000	71.1042
781.2000	71.1615
781.1000	71.2131
781.0000	71.2725
780.9000	71.3356
780.8000	71.404
780.7000	71.4733
780.6000	71.5463
780.5000	71.6288
780.4000	71.7023
780.3000	71.7854
780.2000	71.875
780.1000	71.9678
780.0000	72.0589
779.9000	72.1577
779.8000	72.2631
779.7000	72.3593
779.6000	72.4625
779.5000	72.5749
779.4000	72.6955
779.3000	72.8071
779.2000	72.9169
779.1000	73.0389
779.0000	73.1674
778.9000	73.2842
778.8000	73.4112
778.7000	73.5313
778.6000	73.6574
778.5000	73.7849
778.4000	73.9186
778.3000	74.0494
778.2000	74.1779
778.1000	74.3136
778.0000	74.4461
777.9000	74.5842
777.8000	74.7139
777.7000	74.8599
777.6000	74.9957
777.5000	75.1304
777.4000	75.2669
777.3000	75.4033
777.2000	75.5419
777.1000	75.6869
777.0000	75.8218
776.9000	75.9684
776.8000	76.1075
776.7000	76.2423
776.6000	76.38
776.5000	76.5239
776.4000	76.6671
776.3000	76.8049
776.2000	76.9416
776.1000	77.0725
776.0000	77.2071
775.9000	77.3382
775.8000	77.4689
775.7000	77.6066
775.6000	77.743
775.5000	77.8659
775.4000	78.0006
775.3000	78.1177
775.2000	78.2386
775.1000	78.3595
775.0000	78.4776
774.9000	78.5952
774.8000	78.7103
774.7000	78.8215
774.6000	78.9276
774.5000	79.0346
774.4000	79.1452
774.3000	79.2457
774.2000	79.3431
774.1000	79.4333
774.0000	79.5249
773.9000	79.6178
773.8000	79.6953
773.7000	79.782
773.6000	79.8596
773.5000	79.9365
773.4000	80.0103
773.3000	80.0741
773.2000	80.138
773.1000	80.2002
773.0000	80.2584
772.9000	80.309
772.8000	80.3581
772.7000	80.404
772.6000	80.4482
772.5000	80.4854
772.4000	80.5159
772.3000	80.5418
772.2000	80.5673
772.1000	80.5839
772.0000	80.6023
771.9000	80.6124
771.8000	80.6214
771.7000	80.6236
771.6000	80.6222
771.5000	80.6152
771.4000	80.6044
771.3000	80.5913
771.2000	80.5674
771.1000	80.5401
771.0000	80.5168
770.9000	80.4852
770.8000	80.4464
770.7000	80.4082
770.6000	80.3648
770.5000	80.3154
770.4000	80.2608
770.3000	80.2031
770.2000	80.138
770.1000	80.0701
770.0000	79.9968
769.9000	79.9223
769.8000	79.846
769.7000	79.7648
769.6000	79.6808
769.5000	79.5951
769.4000	79.4966
769.3000	79.402
769.2000	79.3009
769.1000	79.1975
769.0000	79.0959
768.9000	78.9872
768.8000	78.8762
768.7000	78.7654
768.6000	78.6454
768.5000	78.5282
768.4000	78.4039
768.3000	78.2802
768.2000	78.1565
768.1000	78.0237
768.0000	77.8918
767.9000	77.7578
767.8000	77.6238
767.7000	77.4871
767.6000	77.3462
767.5000	77.2029
767.4000	77.0595
767.3000	76.9196
767.2000	76.7762
767.1000	76.6238
767.0000	76.4812
766.9000	76.3383
766.8000	76.1892
766.7000	76.0379
766.6000	75.8887
766.5000	75.7444
766.4000	75.5994
766.3000	75.4531
766.2000	75.3035
766.1000	75.1548
766.0000	75.0069
765.9000	74.8602
765.8000	74.7091
765.7000	74.5581
765.6000	74.4073
765.5000	74.2685
765.4000	74.1274
765.3000	73.9793
765.2000	73.8384
765.1000	73.6976
765.0000	73.5541
764.9000	73.4131
764.8000	73.2698
764.7000	73.125
764.6000	72.9857
764.5000	72.8471
764.4000	72.7175
764.3000	72.5887
764.2000	72.4583
764.1000	72.3307
764.0000	72.2075
763.9000	72.0793
763.8000	71.9544
763.7000	71.8323
763.6000	71.719
763.5000	71.6054
763.4000	71.4939
763.3000	71.3821
763.2000	71.2809
763.1000	71.1801
763.0000	71.0809
762.9000	70.9909
762.8000	70.9025
762.7000	70.8162
762.6000	70.7344
762.5000	70.6543
762.4000	70.5768
762.3000	70.5061
762.2000	70.4369
762.1000	70.3755
762.0000	70.3146
761.9000	70.2612
761.8000	70.2094
761.7000	70.1621
761.6000	70.116
761.5000	70.08
761.4000	70.0441
761.3000	70.0145
761.2000	69.9841
761.1000	69.9574
761.0000	69.936
760.9000	69.9162
760.8000	69.904
760.7000	69.8964
760.6000	69.8907
760.5000	69.8889
760.4000	69.8891
760.3000	69.8938
760.2000	69.9069
760.1000	69.9229
760.0000	69.9402
759.9000	69.9602
759.8000	69.9912
759.7000	70.0173
759.6000	70.0468
759.5000	70.0843
759.4000	70.126
759.3000	70.1756
759.2000	70.2234
759.1000	70.2713
759.0000	70.3277
758.9000	70.3892
758.8000	70.4558
758.7000	70.5177
758.6000	70.5852
758.5000	70.6576
758.4000	70.7345
758.3000	70.8157
758.2000	70.8964
758.1000	70.9844
758.0000	71.0774
757.9000	71.1719
757.8000	71.2666
757.7000	71.3654
757.6000	71.4734
757.5000	71.5851
757.4000	71.693
757.3000	71.8038
757.2000	71.9159
757.1000	72.0392
757.0000	72.1614
756.9000	72.2821
756.8000	72.4098
756.7000	72.5397
756.6000	72.6705
756.5000	72.7977
756.4000	72.9359
756.3000	73.0703
756.2000	73.2123
756.1000	73.3527
756.0000	73.4904
755.9000	73.6277
755.8000	73.7717
755.7000	73.9195
755.6000	74.0666
755.5000	74.2058
755.4000	74.3498
755.3000	74.506
755.2000	74.6513
755.1000	74.799
755.0000	74.9535
754.9000	75.1143
754.8000	75.2603
754.7000	75.4079
754.6000	75.55
754.5000	75.7011
754.4000	75.8462
754.3000	75.9943
754.2000	76.1403
754.1000	76.2845
754.0000	76.4281
753.9000	76.5777
753.8000	76.726
753.7000	76.8571
753.6000	76.9966
753.5000	77.1338
753.4000	77.2635
753.3000	77.3857
753.2000	77.5182
753.1000	77.6482
753.0000	77.7793
752.9000	77.8979
752.8000	78.0163
752.7000	78.1334
752.6000	78.2456
752.5000	78.3455
752.4000	78.4538
752.3000	78.5601
752.2000	78.6563
752.1000	78.7561
752.0000	78.8536
751.9000	78.9456
751.8000	79.0315
751.7000	79.1133
751.6000	79.1853
751.5000	79.2565
751.4000	79.322
751.3000	79.3865
751.2000	79.4546
751.1000	79.5107
751.0000	79.5647
750.9000	79.6161
750.8000	79.6585
750.7000	79.6928
750.6000	79.7298
750.5000	79.7551
750.4000	79.7698
750.3000	79.784
750.2000	79.7938
750.1000	79.8012
750.0000	79.8045
749.9000	79.8036
749.8000	79.7953
749.7000	79.7852
749.6000	79.7632
749.5000	79.7399
749.4000	79.7138
749.3000	79.6854
749.2000	79.6502
749.1000	79.6057
749.0000	79.5553
748.9000	79.5043
748.8000	79.4478
748.7000	79.3859
748.6000	79.3223
748.5000	79.2508
748.4000	79.1806
748.3000	79.0989
748.2000	79.0179
748.1000	78.9304
748.0000	78.8439
747.9000	78.7536
747.8000	78.6532
747.7000	78.5503
747.6000	78.4404
747.5000	78.3294
747.4000	78.2169
747.3000	78.1017
747.2000	77.9823
747.1000	77.8606
747.0000	77.7341
746.9000	77.6033
746.8000	77.4673
746.7000	77.3339
746.6000	77.1966
746.5000	77.0565
746.4000	76.9081
746.3000	76.7647
746.2000	76.6155
746.1000	76.4668
746.0000	76.3151
745.9000	76.1671
745.8000	76.0085
745.7000	75.8513
745.6000	75.7003
745.5000	75.5423
745.4000	75.382
745.3000	75.2282
745.2000	75.0676
745.1000	74.9083
745.0000	74.7487
744.9000	74.5865
744.8000	74.4306
744.7000	74.268
744.6000	74.1095
744.5000	73.9523
744.4000	73.7929
744.3000	73.6359
744.2000	73.4816
744.1000	73.3278
744.0000	73.1667
743.9000	73.0092
743.8000	72.858
743.7000	72.701
743.6000	72.5497
743.5000	72.4008
743.4000	72.2541
743.3000	72.1166
743.2000	71.9715
743.1000	71.8294
743.0000	71.691
742.9000	71.5504
742.8000	71.4202
742.7000	71.2888
742.6000	71.165
742.5000	71.0411
742.4000	70.9246
742.3000	70.8123
742.2000	70.6982
742.1000	70.5955
742.0000	70.4926
741.9000	70.3942
741.8000	70.2939
741.7000	70.195
741.6000	70.1078
741.5000	70.0228
741.4000	69.9415
741.3000	69.8631
741.2000	69.7883
741.1000	69.7156
741.0000	69.647
740.9000	69.5852
740.8000	69.5256
740.7000	69.4689
740.6000	69.4201
740.5000	69.3706
740.4000	69.3324
740.3000	69.2934
740.2000	69.2663
740.1000	69.2337
740.0000	69.1694
739.9000	69.154
739.8000	69.1435
739.7000	69.1378
739.6000	69.1347
739.5000	69.1303
739.4000	69.1337
739.3000	69.1416
739.2000	69.1601
739.1000	69.1726
739.0000	69.1948
738.9000	69.222
738.8000	69.2524
738.7000	69.2876
738.6000	69.3301
738.5000	69.371
738.4000	69.4203
738.3000	69.4653
738.2000	69.5198
738.1000	69.575
738.0000	69.6386
737.9000	69.7087
737.8000	69.778
737.7000	69.8569
737.6000	69.9379
737.5000	70.0276
737.4000	70.1138
737.3000	70.205
737.2000	70.3014
737.1000	70.399
737.0000	70.4989
736.9000	70.6056
736.8000	70.7159
736.7000	70.8302
736.6000	70.9488
736.5000	71.0711
736.4000	71.1974
736.3000	71.3185
736.2000	71.4465
736.1000	71.5756
736.0000	71.7024
735.9000	71.8309
735.8000	71.9686
735.7000	72.1095
735.6000	72.251
735.5000	72.3936
735.4000	72.5365
735.3000	72.6851
735.2000	72.8308
735.1000	72.9828
735.0000	73.1328
734.9000	73.287
734.8000	73.436
734.7000	73.5907
734.6000	73.75
734.5000	73.9054
734.4000	74.065
734.3000	74.2269
734.2000	74.3812
734.1000	74.54
734.0000	74.6994
733.9000	74.8604
733.8000	75.0165
733.7000	75.1703
733.6000	75.3254
733.5000	75.4789
733.4000	75.6282
733.3000	75.7773
733.2000	75.9283
733.1000	76.0778
733.0000	76.2227
732.9000	76.3626
732.8000	76.499
732.7000	76.6321
732.6000	76.7697
732.5000	76.8976
732.4000	77.0183
732.3000	77.1414
732.2000	77.2669
732.1000	77.3856
732.0000	77.5049
731.9000	77.618
731.8000	77.7279
731.7000	77.8315
731.6000	77.9306
731.5000	78.0272
731.4000	78.1178
731.3000	78.2064
731.2000	78.2913
731.1000	78.3736
731.0000	78.4503
730.9000	78.5222
730.8000	78.5916
730.7000	78.6534
730.6000	78.7101
730.5000	78.7659
730.4000	78.8078
730.3000	78.8445
730.2000	78.8841
730.1000	78.9149
730.0000	78.941
729.9000	78.9617
729.8000	78.9787
729.7000	78.9897
729.6000	78.9996
729.5000	79.0021
729.4000	78.9946
729.3000	78.983
729.2000	78.9689
729.1000	78.9475
729.0000	78.9205
728.9000	78.8836
728.8000	78.8485
728.7000	78.812
728.6000	78.7646
728.5000	78.7132
728.4000	78.655
728.3000	78.595
728.2000	78.5283
728.1000	78.4594
728.0000	78.3752
727.9000	78.2926
727.8000	78.2094
727.7000	78.1225
727.6000	78.027
727.5000	77.929
727.4000	77.8262
727.3000	77.7214
727.2000	77.6137
727.1000	77.4975
727.0000	77.3767
726.9000	77.2565
726.8000	77.133
726.7000	77.0001
726.6000	76.8689
726.5000	76.7312
726.4000	76.5963
726.3000	76.4552
726.2000	76.3094
726.1000	76.1551
726.0000	76.0024
725.9000	75.8471
725.8000	75.6908
725.7000	75.5356
725.6000	75.3768
725.5000	75.215
725.4000	75.0542
725.3000	74.8839
725.2000	74.7162
725.1000	74.552
725.0000	74.3834
724.9000	74.2186
724.8000	74.0483
724.7000	73.8806
724.6000	73.7119
724.5000	73.5468
724.4000	73.3794
724.3000	73.2143
724.2000	73.0484
724.1000	72.8822
724.0000	72.7127
723.9000	72.5524
723.8000	72.3889
723.7000	72.2341
723.6000	72.0788
723.5000	71.9238
723.4000	71.7676
723.3000	71.6133
723.2000	71.469
723.1000	71.3192
723.0000	71.1758
722.9000	71.0367
722.8000	70.9008
722.7000	70.7658
722.6000	70.6338
722.5000	70.502
722.4000	70.3801
722.3000	70.2606
722.2000	70.1417
722.1000	70.0216
722.0000	69.9125
721.9000	69.8063
721.8000	69.7037
721.7000	69.6049
721.6000	69.5073
721.5000	69.4191
721.4000	69.3324
721.3000	69.2467
721.2000	69.1712
721.1000	69.0955
721.0000	69.0247
720.9000	68.9599
720.8000	68.9007
720.7000	68.8446
720.6000	68.795
720.5000	68.758
720.4000	68.7108
720.3000	68.672
720.2000	68.6404
720.1000	68.6139
720.0000	68.5946
719.9000	68.5748
719.8000	68.5631
719.7000	68.5613
719.6000	68.558
719.5000	68.5651
719.4000	68.5746
719.3000	68.5914
719.2000	68.6096
719.1000	68.6317
719.0000	68.6638
718.9000	68.6936
718.8000	68.7362
718.7000	68.7813
718.6000	68.8306
718.5000	68.8868
718.4000	68.9436
718.3000	69.0068
718.2000	69.0729
718.1000	69.1408
718.0000	69.2209
717.9000	69.2947
717.8000	69.3782
717.7000	69.4669
717.6000	69.5527
717.5000	69.6478
717.4000	69.7451
717.3000	69.8514
717.2000	69.9602
717.1000	70.0676
717.0000	70.1835
716.9000	70.3015
716.8000	70.4239
716.7000	70.5512
716.6000	70.6829
716.5000	70.8173
716.4000	70.9469
716.3000	71.089
716.2000	71.2324
716.1000	71.3738
716.0000	71.5269
715.9000	71.6732
715.8000	71.827
715.7000	71.9759
715.6000	72.1291
715.5000	72.2897
715.4000	72.4451
715.3000	72.6043
715.2000	72.7629
715.1000	72.9232
715.0000	73.0848
714.9000	73.2479
714.8000	73.414
714.7000	73.5772
714.6000	73.7398
714.5000	73.9046
714.4000	74.0691
714.3000	74.2359
714.2000	74.3933
714.1000	74.5593
714.0000	74.721
713.9000	74.8816
713.8000	75.0405
713.7000	75.1943
713.6000	75.3527
713.5000	75.5101
713.4000	75.66
713.3000	75.8067
713.2000	75.9561
713.1000	76.101
713.0000	76.2431
712.9000	76.3829
712.8000	76.5199
712.7000	76.6487
712.6000	76.7784
712.5000	76.9046
712.4000	77.028
712.3000	77.141
712.2000	77.2555
712.1000	77.3601
712.0000	77.4605
711.9000	77.5545
711.8000	77.6509
711.7000	77.7421
711.6000	77.8241
711.5000	77.9012
711.4000	77.9765
711.3000	78.0409
711.2000	78.1004
711.1000	78.1586
711.0000	78.2103
710.9000	78.2485
710.8000	78.2833
710.7000	78.3149
710.6000	78.3416
710.5000	78.3654
710.4000	78.3808
710.3000	78.3929
710.2000	78.3914
710.1000	78.3849
710.0000	78.3724
709.9000	78.3606
709.8000	78.3355
709.7000	78.3079
709.6000	78.2732
709.5000	78.234
709.4000	78.1872
709.3000	78.1377
709.2000	78.0791
709.1000	78.0204
709.0000	77.9507
708.9000	77.8751
708.8000	77.7947
708.7000	77.7068
708.6000	77.6178
708.5000	77.5264
708.4000	77.4243
708.3000	77.317
708.2000	77.2067
708.1000	77.094
708.0000	76.9712
707.9000	76.8469
707.8000	76.721
707.7000	76.5967
707.6000	76.4622
707.5000	76.3215
707.4000	76.1788
707.3000	76.042
707.2000	75.8934
707.1000	75.745
707.0000	75.5928
706.9000	75.4349
706.8000	75.2831
706.7000	75.1224
706.6000	74.9582
706.5000	74.7949
706.4000	74.6349
706.3000	74.4675
706.2000	74.3029
706.1000	74.1297
706.0000	73.9582
705.9000	73.7894
705.8000	73.6218
705.7000	73.4445
705.6000	73.2756
705.5000	73.107
705.4000	72.938
705.3000	72.7705
705.2000	72.5965
705.1000	72.4273
705.0000	72.2619
704.9000	72.099
704.8000	71.9346
704.7000	71.7691
704.6000	71.6051
704.5000	71.4495
704.4000	71.3
704.3000	71.1413
704.2000	70.9871
704.1000	70.8378
704.0000	70.6919
703.9000	70.5444
703.8000	70.4009
703.7000	70.2617
703.6000	70.1305
703.5000	70.0011
703.4000	69.877
703.3000	69.7555
703.2000	69.6354
703.1000	69.5254
703.0000	69.4171
702.9000	69.3071
702.8000	69.2044
702.7000	69.1127
702.6000	69.0233
702.5000	68.9401
702.4000	68.8569
702.3000	68.7829
702.2000	68.7105
702.1000	68.6448
702.0000	68.5843
701.9000	68.5297
701.8000	68.4828
701.7000	68.4345
701.6000	68.394
701.5000	68.3623
701.4000	68.3321
701.3000	68.3121
701.2000	68.296
701.1000	68.2847
701.0000	68.2797
700.9000	68.2777
700.8000	68.2896
700.7000	68.297
700.6000	68.3149
700.5000	68.3391
700.4000	68.3662
700.3000	68.3993
700.2000	68.4348
700.1000	68.4787
700.0000	68.5286
699.9000	68.581
699.8000	68.6396
699.7000	68.7005
699.6000	68.7666
699.5000	68.8385
699.4000	68.9175
699.3000	69.0039
699.2000	69.0875
699.1000	69.1867
699.0000	69.286
698.9000	69.3863
698.8000	69.4913
698.7000	69.6021
698.6000	69.716
698.5000	69.8334
698.4000	69.9581
698.3000	70.0861
698.2000	70.2167
698.1000	70.3498
698.0000	70.4853
697.9000	70.6268
697.8000	70.7655
697.7000	70.9085
697.6000	71.0568
697.5000	71.1996
697.4000	71.3491
697.3000	71.5038
697.2000	71.6571
697.1000	71.8139
697.0000	71.9734
696.9000	72.1281
696.8000	72.2827
696.7000	72.4375
696.6000	72.5963
696.5000	72.7527
696.4000	72.9118
696.3000	73.0713
696.2000	73.232
696.1000	73.3891
696.0000	73.5433
695.9000	73.7011
695.8000	73.8586
695.7000	74.0114
695.6000	74.1659
695.5000	74.3177
695.4000	74.4648
695.3000	74.618
695.2000	74.766
695.1000	74.9137
695.0000	75.0553
694.9000	75.1996
694.8000	75.3408
694.7000	75.473
694.6000	75.6046
694.5000	75.7326
694.4000	75.8584
694.3000	75.9825
694.2000	76.1027
694.1000	76.2151
694.0000	76.3277
693.9000	76.432
693.8000	76.5324
693.7000	76.6277
693.6000	76.7215
693.5000	76.8098
693.4000	76.8925
693.3000	76.9722
693.2000	77.0466
693.1000	77.118
693.0000	77.1821
692.9000	77.2391
692.8000	77.2928
692.7000	77.3418
692.6000	77.3808
692.5000	77.4224
692.4000	77.4539
692.3000	77.479
692.2000	77.5042
692.1000	77.5232
692.0000	77.5328
691.9000	77.534
691.8000	77.5309
691.7000	77.5275
691.6000	77.5147
691.5000	77.4947
691.4000	77.4693
691.3000	77.4425
691.2000	77.4088
691.1000	77.3688
691.0000	77.3224
690.9000	77.2688
690.8000	77.2099
690.7000	77.1484
690.6000	77.0785
690.5000	77.0022
690.4000	76.926
690.3000	76.8463
690.2000	76.7635
690.1000	76.6646
690.0000	76.5657
689.9000	76.462
689.8000	76.3546
689.7000	76.2436
689.6000	76.1243
689.5000	75.9997
689.4000	75.8721
689.3000	75.7394
689.2000	75.6043
689.1000	75.4645
689.0000	75.3252
688.9000	75.1828
688.8000	75.0315
688.7000	74.8773
688.6000	74.7207
688.5000	74.5673
688.4000	74.4074
688.3000	74.2473
688.2000	74.0866
688.1000	73.9225
688.0000	73.7626
687.9000	73.5976
687.8000	73.4316
687.7000	73.2686
687.6000	73.1006
687.5000	72.934
687.4000	72.7609
687.3000	72.5901
687.2000	72.426
687.1000	72.2617
687.0000	72.0938
686.9000	71.9268
686.8000	71.7626
686.7000	71.6006
686.6000	71.4347
686.5000	71.2717
686.4000	71.1109
686.3000	70.9552
686.2000	70.801
686.1000	70.6448
686.0000	70.4987
685.9000	70.3543
685.8000	70.2121
685.7000	70.0732
685.6000	69.9371
685.5000	69.8041
685.4000	69.6778
685.3000	69.5534
685.2000	69.4302
685.1000	69.3128
685.0000	69.2027
684.9000	69.0952
684.8000	68.9921
684.7000	68.8915
684.6000	68.7992
684.5000	68.7142
684.4000	68.6289
684.3000	68.5493
684.2000	68.4811
684.1000	68.4147
684.0000	68.3519
683.9000	68.3008
683.8000	68.2536
683.7000	68.2109
683.6000	68.1783
683.5000	68.1476
683.4000	68.1252
683.3000	68.1087
683.2000	68.0986
683.1000	68.0984
683.0000	68.102
682.9000	68.113
682.8000	68.1315
682.7000	68.1553
682.6000	68.1823
682.5000	68.2155
682.4000	68.2594
682.3000	68.3061
682.2000	68.3592
682.1000	68.4217
682.0000	68.4856
681.9000	68.5624
681.8000	68.6424
681.7000	68.7252
681.6000	68.8166
681.5000	68.9087
681.4000	69.0074
681.3000	69.1129
681.2000	69.2242
681.1000	69.345
681.0000	69.4641
680.9000	69.5936
680.8000	69.7243
680.7000	69.8558
680.6000	69.996
680.5000	70.138
680.4000	70.2858
680.3000	70.4298
680.2000	70.5815
680.1000	70.7399
680.0000	70.8948
679.9000	71.0565
679.8000	71.2185
679.7000	71.3845
679.6000	71.5448
679.5000	71.7061
679.4000	71.8767
679.3000	72.0438
679.2000	72.2118
679.1000	72.3806
679.0000	72.5517
678.9000	72.7197
678.8000	72.8892
678.7000	73.0619
678.6000	73.2291
678.5000	73.3973
678.4000	73.5685
678.3000	73.734
678.2000	73.904
678.1000	74.0638
678.0000	74.2307
677.9000	74.3878
677.8000	74.546
677.7000	74.7046
677.6000	74.8597
677.5000	75.0157
677.4000	75.159
677.3000	75.3064
677.2000	75.4497
677.1000	75.5878
677.0000	75.7249
676.9000	75.8577
676.8000	75.9818
676.7000	76.1049
676.6000	76.2202
676.5000	76.3354
676.4000	76.4433
676.3000	76.5532
676.2000	76.6574
676.1000	76.753
676.0000	76.843
675.9000	76.9282
675.8000	77.0102
675.7000	77.0775
675.6000	77.1461
675.5000	77.2069
675.4000	77.2613
675.3000	77.3093
675.2000	77.3527
675.1000	77.391
675.0000	77.4213
674.9000	77.4463
674.8000	77.4652
674.7000	77.4753
674.6000	77.4735
674.5000	77.4671
674.4000	77.4548
674.3000	77.4288
674.2000	77.405
674.1000	77.3763
674.0000	77.3363
673.9000	77.2914
673.8000	77.241
673.7000	77.1812
673.6000	77.1167
673.5000	77.0447
673.4000	76.9661
673.3000	76.8797
673.2000	76.7931
673.1000	76.6951
673.0000	76.5919
672.9000	76.4826
672.8000	76.3705
672.7000	76.2583
672.6000	76.1327
672.5000	76.0062
672.4000	75.8692
672.3000	75.7339
672.2000	75.5932
672.1000	75.4477
672.0000	75.2982
671.9000	75.1463
671.8000	74.993
671.7000	74.8367
671.6000	74.6716
671.5000	74.5087
671.4000	74.3448
671.3000	74.1793
671.2000	74.0114
671.1000	73.8387
671.0000	73.6651
670.9000	73.4921
670.8000	73.3217
670.7000	73.1461
670.6000	72.9705
670.5000	72.7949
670.4000	72.6205
670.3000	72.4473
670.2000	72.2757
670.1000	72.1
670.0000	71.9295
669.9000	71.7591
669.8000	71.5899
669.7000	71.4253
669.6000	71.2592
669.5000	71.0987
669.4000	70.9419
669.3000	70.787
669.2000	70.6337
669.1000	70.4867
669.0000	70.3382
668.9000	70.1996
668.8000	70.0596
668.7000	69.9279
668.6000	69.7961
668.5000	69.672
668.4000	69.5477
668.3000	69.4344
668.2000	69.3205
668.1000	69.21
668.0000	69.1067
667.9000	69.0109
667.8000	68.919
667.7000	68.8317
667.6000	68.7536
667.5000	68.6764
667.4000	68.6081
667.3000	68.5417
667.2000	68.4872
667.1000	68.4317
667.0000	68.3888
666.9000	68.3499
666.8000	68.3185
666.7000	68.2919
666.6000	68.2723
666.5000	68.2611
666.4000	68.2571
666.3000	68.2561
666.2000	68.2613
666.1000	68.2704
666.0000	68.284
665.9000	68.3093
665.8000	68.3434
665.7000	68.3828
665.6000	68.4234
665.5000	68.4743
665.4000	68.5281
665.3000	68.5887
665.2000	68.6569
665.1000	68.7313
665.0000	68.8146
664.9000	68.8992
664.8000	68.989
664.7000	69.0847
664.6000	69.1903
664.5000	69.3022
664.4000	69.4168
664.3000	69.5331
664.2000	69.6534
664.1000	69.7789
664.0000	69.9133
663.9000	70.0504
663.8000	70.1933
663.7000	70.3373
663.6000	70.488
663.5000	70.6377
663.4000	70.7916
663.3000	70.9535
663.2000	71.1155
663.1000	71.2794
663.0000	71.4428
662.9000	71.6116
662.8000	71.7842
662.7000	71.9548
662.6000	72.1311
662.5000	72.3095
662.4000	72.4845
662.3000	72.6621
662.2000	72.8344
662.1000	73.0158
662.0000	73.1911
661.9000	73.3679
661.8000	73.5449
661.7000	73.7145
661.6000	73.8883
661.5000	74.0664
661.4000	74.2408
661.3000	74.4084
661.2000	74.577
661.1000	74.743
661.0000	74.9033
660.9000	75.058
660.8000	75.2146
660.7000	75.3657
660.6000	75.5144
660.5000	75.6519
660.4000	75.7936
660.3000	75.9268
660.2000	76.0571
660.1000	76.1831
660.0000	76.3034
659.9000	76.4125
659.8000	76.5173
659.7000	76.6185
659.6000	76.7101
659.5000	76.7989
659.4000	76.8803
659.3000	76.9576
659.2000	77.0259
659.1000	77.088
659.0000	77.1415
658.9000	77.1993
658.8000	77.2377
658.7000	77.2725
658.6000	77.2982
658.5000	77.3229
658.4000	77.3383
658.3000	77.3434
658.2000	77.3412
658.1000	77.333
658.0000	77.3197
657.9000	77.2996
657.8000	77.268
657.7000	77.2329
657.6000	77.1858
657.5000	77.1361
657.4000	77.0809
657.3000	77.0112
657.2000	76.9384
657.1000	76.8653
657.0000	76.7775
656.9000	76.6847
656.8000	76.5832
656.7000	76.4805
656.6000	76.3734
656.5000	76.2592
656.4000	76.138
656.3000	76.0123
656.2000	75.887
656.1000	75.7516
656.0000	75.6152
655.9000	75.4705
655.8000	75.323
655.7000	75.1707
655.6000	75.0188
655.5000	74.8572
655.4000	74.6964
655.3000	74.5333
655.2000	74.3656
655.1000	74.1961
655.0000	74.0257
654.9000	73.8542
654.8000	73.6837
654.7000	73.5077
654.6000	73.3286
654.5000	73.1495
654.4000	72.9724
654.3000	72.7949
654.2000	72.6192
654.1000	72.4423
654.0000	72.2698
653.9000	72.0975
653.8000	71.9293
653.7000	71.7577
653.6000	71.5929
653.5000	71.4275
653.4000	71.2642
653.3000	71.1059
653.2000	70.9466
653.1000	70.7944
653.0000	70.6467
652.9000	70.5042
652.8000	70.3623
652.7000	70.2273
652.6000	70.0962
652.5000	69.9698
652.4000	69.8429
652.3000	69.7266
652.2000	69.6156
652.1000	69.5089
652.0000	69.4053
651.9000	69.3111
651.8000	69.2213
651.7000	69.1388
651.6000	69.0633
651.5000	68.9924
651.4000	68.9292
651.3000	68.8728
651.2000	68.8244
651.1000	68.7812
651.0000	68.7452
650.9000	68.7163
650.8000	68.6956
650.7000	68.6777
650.6000	68.6641
650.5000	68.6649
650.4000	68.6714
650.3000	68.6822
650.2000	68.6997
650.1000	68.7171
650.0000	68.7481
649.9000	68.787
649.8000	68.8312
649.7000	68.8798
649.6000	68.9409
649.5000	69.0019
649.4000	69.0705
649.3000	69.1462
649.2000	69.2259
649.1000	69.3167
649.0000	69.4148
648.9000	69.5133
648.8000	69.6208
648.7000	69.7328
648.6000	69.8524
648.5000	69.9804
648.4000	70.1091
648.3000	70.2422
648.2000	70.378
648.1000	70.5245
648.0000	70.6674
647.9000	70.8215
647.8000	70.979
647.7000	71.1365
647.6000	71.3033
647.5000	71.4637
647.4000	71.6328
647.3000	71.8028
647.2000	71.9732
647.1000	72.1461
647.0000	72.3206
646.9000	72.4992
646.8000	72.6775
646.7000	72.8545
646.6000	73.0345
646.5000	73.2097
646.4000	73.3881
646.3000	73.5659
646.2000	73.7424
646.1000	73.9212
646.0000	74.0915
645.9000	74.2689
645.8000	74.4347
645.7000	74.6027
645.6000	74.7695
645.5000	74.9356
645.4000	75.0959
645.3000	75.2499
645.2000	75.4011
645.1000	75.5502
645.0000	75.6934
644.9000	75.8326
644.8000	75.969
644.7000	76.097
644.6000	76.219
644.5000	76.3382
644.4000	76.4534
644.3000	76.5594
644.2000	76.6645
644.1000	76.7592
644.0000	76.8463
643.9000	76.9266
643.8000	77.0001
643.7000	77.0678
643.6000	77.1306
643.5000	77.1898
643.4000	77.2372
643.3000	77.2783
643.2000	77.3103
643.1000	77.3371
643.0000	77.3573
642.9000	77.3699
642.8000	77.3707
642.7000	77.3682
642.6000	77.3565
642.5000	77.3363
642.4000	77.3081
642.3000	77.2746
642.2000	77.2335
642.1000	77.1841
642.0000	77.1306
641.9000	77.0639
641.8000	76.9932
641.7000	76.9139
641.6000	76.8316
641.5000	76.7366
641.4000	76.6356
641.3000	76.5261
641.2000	76.4188
641.1000	76.3008
641.0000	76.1785
640.9000	76.0542
640.8000	75.9215
640.7000	75.7846
640.6000	75.6468
640.5000	75.4977
640.4000	75.3431
640.3000	75.1905
640.2000	75.038
640.1000	74.8793
640.0000	74.7127
639.9000	74.5497
639.8000	74.3849
639.7000	74.2216
639.6000	74.0489
639.5000	73.8788
639.4000	73.7075
639.3000	73.5358
639.2000	73.3652
639.1000	73.1936
639.0000	73.0206
638.9000	72.8507
638.8000	72.6811
638.7000	72.5135
638.6000	72.3449
638.5000	72.1809
638.4000	72.0181
638.3000	71.8608
638.2000	71.7048
638.1000	71.5518
638.0000	71.4036
637.9000	71.2549
637.8000	71.1137
637.7000	70.9725
637.6000	70.8401
637.5000	70.711
637.4000	70.5857
637.3000	70.4674
637.2000	70.3518
637.1000	70.2416
637.0000	70.1332
636.9000	70.0379
636.8000	69.9483
636.7000	69.8631
636.6000	69.7813
636.5000	69.7044
636.4000	69.6357
636.3000	69.5767
636.2000	69.5213
636.1000	69.4742
636.0000	69.4298
635.9000	69.3939
635.8000	69.3672
635.7000	69.3513
635.6000	69.3396
635.5000	69.334
635.4000	69.3387
635.3000	69.3472
635.2000	69.3654
635.1000	69.3865
635.0000	69.4172
634.9000	69.4557
634.8000	69.503
634.7000	69.5549
634.6000	69.6169
634.5000	69.6835
634.4000	69.7605
634.3000	69.842
634.2000	69.9246
634.1000	70.014
634.0000	70.1145
633.9000	70.2173
633.8000	70.3279
633.7000	70.4392
633.6000	70.5556
633.5000	70.6824
633.4000	70.8191
633.3000	70.9558
633.2000	71.0977
633.1000	71.2381
633.0000	71.3849
632.9000	71.5373
632.8000	71.6895
632.7000	71.8456
632.6000	72.0126
632.5000	72.1795
632.4000	72.3455
632.3000	72.5221
632.2000	72.6976
632.1000	72.8726
632.0000	73.0518
631.9000	73.2276
631.8000	73.3985
631.7000	73.5734
631.6000	73.7464
631.5000	73.9279
631.4000	74.1033
631.3000	74.2761
631.2000	74.4523
631.1000	74.6258
631.0000	74.7947
630.9000	74.9621
630.8000	75.1286
630.7000	75.2815
630.6000	75.4388
630.5000	75.5959
630.4000	75.7471
630.3000	75.8922
630.2000	76.0373
630.1000	76.1738
630.0000	76.3088
629.9000	76.4374
629.8000	76.5608
629.7000	76.6801
629.6000	76.7905
629.5000	76.8979
629.4000	76.9961
629.3000	77.0859
629.2000	77.1728
629.1000	77.2542
629.0000	77.323
628.9000	77.388
628.8000	77.4407
628.7000	77.492
628.6000	77.5301
628.5000	77.5647
628.4000	77.5897
628.3000	77.6084
628.2000	77.6194
628.1000	77.6257
628.0000	77.6176
627.9000	77.6017
627.8000	77.5788
627.7000	77.5547
627.6000	77.5145
627.5000	77.4708
627.4000	77.4223
627.3000	77.365
627.2000	77.3037
627.1000	77.2309
627.0000	77.1573
626.9000	77.0725
626.8000	76.9824
626.7000	76.8832
626.6000	76.7734
626.5000	76.6578
626.4000	76.5495
626.3000	76.4307
626.2000	76.3103
626.1000	76.1773
626.0000	76.0451
625.9000	75.9075
625.8000	75.7626
625.7000	75.6114
625.6000	75.4576
625.5000	75.3046
625.4000	75.1441
625.3000	74.9856
625.2000	74.8244
625.1000	74.6634
625.0000	74.5006
624.9000	74.3381
624.8000	74.1678
624.7000	74.0038
624.6000	73.8336
624.5000	73.6676
624.4000	73.5014
624.3000	73.3332
624.2000	73.1706
624.1000	73.0103
624.0000	72.8492
623.9000	72.6936
623.8000	72.5398
623.7000	72.3891
623.6000	72.2359
623.5000	72.0864
623.4000	71.9471
623.3000	71.8099
623.2000	71.6778
623.1000	71.5428
623.0000	71.4163
622.9000	71.2942
622.8000	71.1772
622.7000	71.0714
622.6000	70.9654
622.5000	70.8677
622.4000	70.7763
622.3000	70.6913
622.2000	70.6144
622.1000	70.5383
622.0000	70.4783
621.9000	70.4217
621.8000	70.3735
621.7000	70.3311
621.6000	70.2948
621.5000	70.2704
621.4000	70.2497
621.3000	70.2405
621.2000	70.2368
621.1000	70.238
621.0000	70.2482
620.9000	70.2662
620.8000	70.2923
620.7000	70.3239
620.6000	70.3628
620.5000	70.4112
620.4000	70.465
620.3000	70.5248
620.2000	70.5888
620.1000	70.6607
620.0000	70.737
619.9000	70.8217
619.8000	70.9152
619.7000	71.0136
619.6000	71.1152
619.5000	71.2275
619.4000	71.3432
619.3000	71.4605
619.2000	71.5899
619.1000	71.718
619.0000	71.8493
618.9000	71.9915
618.8000	72.135
618.7000	72.2841
618.6000	72.4332
618.5000	72.5868
618.4000	72.748
618.3000	72.9141
618.2000	73.0795
618.1000	73.2451
618.0000	73.4159
617.9000	73.583
617.8000	73.7528
617.7000	73.9281
617.6000	74.0975
617.5000	74.2719
617.4000	74.4462
617.3000	74.6142
617.2000	74.7816
617.1000	74.9489
617.0000	75.124
616.9000	75.2921
616.8000	75.4534
616.7000	75.6119
616.6000	75.7685
616.5000	75.9233
616.4000	76.0775
616.3000	76.2255
616.2000	76.3707
616.1000	76.5056
616.0000	76.6382
615.9000	76.7651
615.8000	76.8932
615.7000	77.0118
615.6000	77.1285
615.5000	77.2382
615.4000	77.3311
615.3000	77.4245
615.2000	77.5137
615.1000	77.5922
615.0000	77.6675
614.9000	77.7325
614.8000	77.787
614.7000	77.837
614.6000	77.8782
614.5000	77.9128
614.4000	77.9422
614.3000	77.9598
614.2000	77.9664
614.1000	77.9726
614.0000	77.9675
613.9000	77.9519
613.8000	77.9318
613.7000	77.8981
613.6000	77.8588
613.5000	77.8162
613.4000	77.7651
613.3000	77.7019
613.2000	77.6377
613.1000	77.5637
613.0000	77.4825
612.9000	77.3977
612.8000	77.3002
612.7000	77.2012
612.6000	77.0981
612.5000	76.9836
612.4000	76.8622
612.3000	76.7381
612.2000	76.6143
612.1000	76.4814
612.0000	76.3461
611.9000	76.2026
611.8000	76.0553
611.7000	75.9092
611.6000	75.755
611.5000	75.5974
611.4000	75.4424
611.3000	75.2846
611.2000	75.1275
611.1000	74.9686
611.0000	74.8071
610.9000	74.6477
610.8000	74.4866
610.7000	74.3264
610.6000	74.1628
610.5000	74.007
610.4000	73.8512
610.3000	73.6961
610.2000	73.5396
610.1000	73.3885
610.0000	73.2411
609.9000	73.0999
609.8000	72.9608
609.7000	72.8223
609.6000	72.6905
609.5000	72.5586
609.4000	72.4336
609.3000	72.3086
609.2000	72.1945
609.1000	72.0876
609.0000	71.9841
608.9000	71.885
608.8000	71.7932
608.7000	71.7059
608.6000	71.6272
608.5000	71.5534
608.4000	71.4897
608.3000	71.4323
608.2000	71.3764
608.1000	71.3333
608.0000	71.2964
607.9000	71.2701
607.8000	71.2468
607.7000	71.2387
607.6000	71.2306
607.5000	71.228
607.4000	71.2375
607.3000	71.2581
607.2000	71.2835
607.1000	71.3129
607.0000	71.3539
606.9000	71.4022
606.8000	71.4561
606.7000	71.5174
606.6000	71.589
606.5000	71.6674
606.4000	71.7492
606.3000	71.839
606.2000	71.9367
606.1000	72.037
606.0000	72.1468
605.9000	72.2624
605.8000	72.3814
605.7000	72.5025
605.6000	72.6315
605.5000	72.7714
605.4000	72.9142
605.3000	73.0581
605.2000	73.2029
605.1000	73.3534
605.0000	73.5089
604.9000	73.6653
604.8000	73.825
604.7000	73.9848
604.6000	74.1447
604.5000	74.3089
604.4000	74.4746
604.3000	74.6458
604.2000	74.8144
604.1000	74.9823
604.0000	75.1516
603.9000	75.3153
603.8000	75.4764
603.7000	75.6415
603.6000	75.8053
603.5000	75.9657
603.4000	76.1206
603.3000	76.2726
603.2000	76.421
603.1000	76.5701
603.0000	76.7153
602.9000	76.8564
602.8000	76.9937
602.7000	77.1205
602.6000	77.2455
602.5000	77.367
602.4000	77.4779
602.3000	77.5865
602.2000	77.6885
602.1000	77.782
602.0000	77.8685
601.9000	77.9484
601.8000	78.0188
601.7000	78.0865
601.6000	78.1502
601.5000	78.2032
601.4000	78.2447
601.3000	78.2813
601.2000	78.3102
601.1000	78.3321
601.0000	78.3416
600.9000	78.3468
600.8000	78.344
600.7000	78.3323
600.6000	78.316
600.5000	78.2891
600.4000	78.256
600.3000	78.2157
600.2000	78.1701
600.1000	78.1154
600.0000	78.1229
599.9000	78.0549
599.8000	77.9781
599.7000	77.8915
599.6000	77.7985
599.5000	77.6972
599.4000	77.5923
599.3000	77.4782
599.2000	77.3622
599.1000	77.2425
599.0000	77.119
598.9000	76.9941
598.8000	76.8593
598.7000	76.7218
598.6000	76.5761
598.5000	76.4286
598.4000	76.2788
598.3000	76.1295
598.2000	75.9779
598.1000	75.825
598.0000	75.6714
597.9000	75.5168
597.8000	75.3642
597.7000	75.211
597.6000	75.0576
597.5000	74.901
597.4000	74.7503
597.3000	74.5989
597.2000	74.4491
597.1000	74.3025
597.0000	74.1638
596.9000	74.0281
596.8000	73.8979
596.7000	73.7661
596.6000	73.639
596.5000	73.5149
596.4000	73.3993
596.3000	73.2844
596.2000	73.1761
596.1000	73.0792
596.0000	72.9862
595.9000	72.9035
595.8000	72.8228
595.7000	72.7497
595.6000	72.6868
595.5000	72.6262
595.4000	72.5689
595.3000	72.5263
595.2000	72.4856
595.1000	72.4572
595.0000	72.4357
594.9000	72.4232
594.8000	72.4177
594.7000	72.4249
594.6000	72.4333
594.5000	72.4447
594.4000	72.4691
594.3000	72.4984
594.2000	72.5356
594.1000	72.5823
594.0000	72.639
593.9000	72.7046
593.8000	72.7765
593.7000	72.8516
593.6000	72.9359
593.5000	73.0292
593.4000	73.1283
593.3000	73.2338
593.2000	73.3461
593.1000	73.4601
593.0000	73.5806
592.9000	73.7089
592.8000	73.8393
592.7000	73.978
592.6000	74.1187
592.5000	74.2638
592.4000	74.4081
592.3000	74.5574
592.2000	74.7096
592.1000	74.8671
592.0000	75.03
591.9000	75.1859
591.8000	75.3447
591.7000	75.5012
591.6000	75.6592
591.5000	75.8206
591.4000	75.9804
591.3000	76.1404
591.2000	76.3026
591.1000	76.46
591.0000	76.6149
590.9000	76.7713
590.8000	76.923
590.7000	77.0724
590.6000	77.2213
590.5000	77.3594
590.4000	77.4905
590.3000	77.62
590.2000	77.7474
590.1000	77.8696
590.0000	77.9868
589.9000	78.0982
589.8000	78.2037
589.7000	78.3028
589.6000	78.3931
589.5000	78.4794
589.4000	78.5576
589.3000	78.6242
589.2000	78.6824
589.1000	78.7381
589.0000	78.7809
588.9000	78.82
588.8000	78.8533
588.7000	78.8787
588.6000	78.8942
588.5000	78.9059
588.4000	78.9052
588.3000	78.8976
588.2000	78.8859
588.1000	78.8635
588.0000	78.8338
587.9000	78.7919
587.8000	78.7469
587.7000	78.6947
587.6000	78.6429
587.5000	78.5753
587.4000	78.502
587.3000	78.4241
587.2000	78.3388
587.1000	78.2513
587.0000	78.1521
586.9000	78.0471
586.8000	77.9398
586.7000	77.825
586.6000	77.7049
586.5000	77.583
586.4000	77.4574
586.3000	77.3268
586.2000	77.1914
586.1000	77.0574
586.0000	76.9176
585.9000	76.7777
585.8000	76.6413
585.7000	76.5
585.6000	76.3572
585.5000	76.2115
585.4000	76.0693
585.3000	75.9256
585.2000	75.7831
585.1000	75.6447
585.0000	75.5052
584.9000	75.3643
584.8000	75.2242
584.7000	75.0952
584.6000	74.9681
584.5000	74.8412
584.4000	74.7159
584.3000	74.593
584.2000	74.4806
584.1000	74.3704
584.0000	74.2665
583.9000	74.1687
583.8000	74.0788
583.7000	73.9912
583.6000	73.9054
583.5000	73.8292
583.4000	73.7615
583.3000	73.7041
583.2000	73.6541
583.1000	73.6047
583.0000	73.5615
582.9000	73.5303
582.8000	73.5085
582.7000	73.4936
582.6000	73.4797
582.5000	73.4794
582.4000	73.487
582.3000	73.4999
582.2000	73.5192
582.1000	73.5476
582.0000	73.5886
581.9000	73.6357
581.8000	73.6887
581.7000	73.7468
581.6000	73.8124
581.5000	73.8828
581.4000	73.9661
581.3000	74.0496
581.2000	74.1418
581.1000	74.2424
581.0000	74.3501
580.9000	74.4565
580.8000	74.5692
580.7000	74.6919
580.6000	74.817
580.5000	74.9496
580.4000	75.0817
580.3000	75.2142
580.2000	75.3541
580.1000	75.4939
580.0000	75.6415
579.9000	75.7932
579.8000	75.9396
579.7000	76.0929
579.6000	76.2426
579.5000	76.3993
579.4000	76.5432
579.3000	76.6955
579.2000	76.8472
579.1000	76.9956
579.0000	77.1411
578.9000	77.2834
578.8000	77.428
578.7000	77.5698
578.6000	77.7035
578.5000	77.8376
578.4000	77.9646
578.3000	78.0884
578.2000	78.2118
578.1000	78.3214
578.0000	78.4327
577.9000	78.5285
577.8000	78.6339
577.7000	78.724
577.6000	78.8061
577.5000	78.8826
577.4000	78.9549
577.3000	79.021
577.2000	79.0804
577.1000	79.1311
577.0000	79.1774
576.9000	79.2137
576.8000	79.242
576.7000	79.2594
576.6000	79.2695
576.5000	79.2803
576.4000	79.2773
576.3000	79.271
576.2000	79.2514
576.1000	79.228
576.0000	79.1995
575.9000	79.1606
575.8000	79.1163
575.7000	79.0664
575.6000	79.0061
575.5000	78.9413
575.4000	78.8679
575.3000	78.7909
575.2000	78.7072
575.1000	78.6184
575.0000	78.5247
574.9000	78.4243
574.8000	78.3186
574.7000	78.21
574.6000	78.0957
574.5000	77.979
574.4000	77.8586
574.3000	77.734
574.2000	77.6067
574.1000	77.474
574.0000	77.3397
573.9000	77.2076
573.8000	77.0749
573.7000	76.9404
573.6000	76.8013
573.5000	76.6665
573.4000	76.5329
573.3000	76.4013
573.2000	76.2656
573.1000	76.1361
573.0000	76.0102
572.9000	75.8858
572.8000	75.7606
572.7000	75.6412
572.6000	75.5249
572.5000	75.4152
572.4000	75.3098
572.3000	75.2078
572.2000	75.1121
572.1000	75.0226
572.0000	74.9422
571.9000	74.8647
571.8000	74.7909
571.7000	74.7212
571.6000	74.6655
571.5000	74.6111
571.4000	74.5649
571.3000	74.5277
571.2000	74.4991
571.1000	74.4759
571.0000	74.4596
570.9000	74.4481
570.8000	74.4481
570.7000	74.4526
570.6000	74.4627
570.5000	74.4815
570.4000	74.5089
570.3000	74.5477
570.2000	74.5917
570.1000	74.6435
570.0000	74.7025
569.9000	74.7677
569.8000	74.8402
569.7000	74.9172
569.6000	74.9982
569.5000	75.0895
569.4000	75.1864
569.3000	75.2908
569.2000	75.3963
569.1000	75.5081
569.0000	75.6227
568.9000	75.7428
568.8000	75.8712
568.7000	75.995
568.6000	76.1254
568.5000	76.2599
568.4000	76.3937
568.3000	76.5267
568.2000	76.6616
568.1000	76.7995
568.0000	76.9397
567.9000	77.078
567.8000	77.2199
567.7000	77.3578
567.6000	77.4972
567.5000	77.6342
567.4000	77.773
567.3000	77.9083
567.2000	78.0326
567.1000	78.16
567.0000	78.2827
566.9000	78.3977
566.8000	78.5101
566.7000	78.6226
566.6000	78.7251
566.5000	78.8244
566.4000	78.9159
566.3000	79.0081
566.2000	79.0883
566.1000	79.1665
566.0000	79.2323
565.9000	79.2928
565.8000	79.3455
565.7000	79.3899
565.6000	79.43
565.5000	79.4628
565.4000	79.4875
565.3000	79.5077
565.2000	79.5228
565.1000	79.5222
565.0000	79.5256
564.9000	79.5138
564.8000	79.4946
564.7000	79.4646
564.6000	79.4301
564.5000	79.3874
564.4000	79.3392
564.3000	79.2814
564.2000	79.2186
564.1000	79.1493
564.0000	79.0743
563.9000	78.9907
563.8000	78.9057
563.7000	78.8141
563.6000	78.7169
563.5000	78.6145
563.4000	78.5016
563.3000	78.3936
563.2000	78.2834
563.1000	78.1678
563.0000	78.0453
562.9000	77.9218
562.8000	77.798
562.7000	77.6735
562.6000	77.546
562.5000	77.4205
562.4000	77.2938
562.3000	77.1691
562.2000	77.0405
562.1000	76.9156
562.0000	76.7857
561.9000	76.6644
561.8000	76.5466
561.7000	76.4296
561.6000	76.3137
561.5000	76.2019
561.4000	76.0971
561.3000	75.9934
561.2000	75.8929
561.1000	75.7984
561.0000	75.7151
560.9000	75.6324
560.8000	75.556
560.7000	75.484
560.6000	75.4186
560.5000	75.3568
560.4000	75.3067
560.3000	75.2649
560.2000	75.2268
560.1000	75.195
560.0000	75.1703
559.9000	75.1527
559.8000	75.1416
559.7000	75.1398
559.6000	75.1455
559.5000	75.1597
559.4000	75.1752
559.3000	75.2008
559.2000	75.2344
559.1000	75.2771
559.0000	75.3234
558.9000	75.3814
558.8000	75.4401
558.7000	75.5094
558.6000	75.5869
558.5000	75.6649
558.4000	75.7551
558.3000	75.8468
558.2000	75.9425
558.1000	76.0444
558.0000	76.1532
557.9000	76.2642
557.8000	76.38
557.7000	76.4998
557.6000	76.6198
557.5000	76.7444
557.4000	76.8724
557.3000	76.999
557.2000	77.1349
557.1000	77.2624
557.0000	77.3906
556.9000	77.5207
556.8000	77.6477
556.7000	77.7779
556.6000	77.9076
556.5000	78.031
556.4000	78.1536
556.3000	78.2716
556.2000	78.3846
556.1000	78.5007
556.0000	78.6129
555.9000	78.716
555.8000	78.8168
555.7000	78.9114
555.6000	78.9983
555.5000	79.0825
555.4000	79.1596
555.3000	79.2307
555.2000	79.2954
555.1000	79.3533
555.0000	79.4036
554.9000	79.4489
554.8000	79.484
554.7000	79.515
554.6000	79.5403
554.5000	79.5518
554.4000	79.5553
554.3000	79.5557
554.2000	79.5487
554.1000	79.5324
554.0000	79.5079
553.9000	79.4801
553.8000	79.4471
553.7000	79.4056
553.6000	79.3553
553.5000	79.2936
553.4000	79.2313
553.3000	79.161
553.2000	79.085
553.1000	79.0066
553.0000	78.9218
552.9000	78.8299
552.8000	78.7332
552.7000	78.6298
552.6000	78.5249
552.5000	78.4158
552.4000	78.3071
552.3000	78.1895
552.2000	78.0676
552.1000	77.9481
552.0000	77.8252
551.9000	77.7062
551.8000	77.5854
551.7000	77.4632
551.6000	77.343
551.5000	77.2217
551.4000	77.0991
551.3000	76.9796
551.2000	76.8631
551.1000	76.7522
551.0000	76.6423
550.9000	76.5381
550.8000	76.4344
550.7000	76.3357
550.6000	76.2423
550.5000	76.1519
550.4000	76.0704
550.3000	75.9928
550.2000	75.9155
550.1000	75.8525
550.0000	75.7938
549.9000	75.7374
549.8000	75.6942
549.7000	75.6544
549.6000	75.6223
549.5000	75.5945
549.4000	75.5702
549.3000	75.5624
549.2000	75.5603
549.1000	75.5642
549.0000	75.5744
548.9000	75.5929
548.8000	75.6226
548.7000	75.6567
548.6000	75.7014
548.5000	75.7449
548.4000	75.7967
548.3000	75.8618
548.2000	75.9262
548.1000	75.9971
548.0000	76.0769
547.9000	76.1621
547.8000	76.2543
547.7000	76.345
547.6000	76.4396
547.5000	76.5431
547.4000	76.6484
547.3000	76.7589
547.2000	76.8655
547.1000	76.9785
547.0000	77.0941
546.9000	77.2125
546.8000	77.3293
546.7000	77.4438
546.6000	77.5622
546.5000	77.6823
546.4000	77.8011
546.3000	77.9132
546.2000	78.0282
546.1000	78.1402
546.0000	78.2529
545.9000	78.356
545.8000	78.4568
545.7000	78.5541
545.6000	78.6502
545.5000	78.7391
545.4000	78.8197
545.3000	78.8997
545.2000	78.9734
545.1000	79.044
545.0000	79.1069
544.9000	79.1638
544.8000	79.2099
544.7000	79.253
544.6000	79.2909
544.5000	79.3132
544.4000	79.3319
544.3000	79.3493
544.2000	79.358
544.1000	79.3554
544.0000	79.3443
543.9000	79.3287
543.8000	79.3055
543.7000	79.2758
543.6000	79.2394
543.5000	79.1914
543.4000	79.1402
543.3000	79.0823
543.2000	79.0198
543.1000	78.9515
543.0000	78.8742
542.9000	78.7987
542.8000	78.7118
542.7000	78.6203
542.6000	78.5264
542.5000	78.4277
542.4000	78.3253
542.3000	78.2214
542.2000	78.1144
542.1000	78.0024
542.0000	77.8899
541.9000	77.7802
541.8000	77.6611
541.7000	77.544
541.6000	77.4214
541.5000	77.3049
541.4000	77.1872
541.3000	77.0709
541.2000	76.955
541.1000	76.8403
541.0000	76.7291
540.9000	76.6247
540.8000	76.5214
540.7000	76.4222
540.6000	76.3276
540.5000	76.2391
540.4000	76.1526
540.3000	76.067
540.2000	75.9943
540.1000	75.9238
540.0000	75.8633
539.9000	75.8042
539.8000	75.7547
539.7000	75.714
539.6000	75.6797
539.5000	75.6512
539.4000	75.6268
539.3000	75.6073
539.2000	75.5995
539.1000	75.598
539.0000	75.601
538.9000	75.6103
538.8000	75.6278
538.7000	75.658
538.6000	75.6909
538.5000	75.73
538.4000	75.7811
538.3000	75.8359
538.2000	75.8958
538.1000	75.9564
538.0000	76.0269
537.9000	76.1033
537.8000	76.1883
537.7000	76.2729
537.6000	76.363
537.5000	76.4552
537.4000	76.5557
537.3000	76.6552
537.2000	76.7615
537.1000	76.8642
537.0000	76.9703
536.9000	77.0785
536.8000	77.1844
536.7000	77.289
536.6000	77.398
536.5000	77.5092
536.4000	77.6177
536.3000	77.7252
536.2000	77.8277
536.1000	77.9326
536.0000	78.0295
535.9000	78.1215
535.8000	78.2122
535.7000	78.299
535.6000	78.3809
535.5000	78.4542
535.4000	78.5286
535.3000	78.5959
535.2000	78.661
535.1000	78.7201
535.0000	78.764
534.9000	78.803
534.8000	78.8367
534.7000	78.8627
534.6000	78.8812
534.5000	78.8945
534.4000	78.9003
534.3000	78.9021
534.2000	78.8917
534.1000	78.8782
534.0000	78.853
533.9000	78.827
533.8000	78.7878
533.7000	78.748
533.6000	78.6939
533.5000	78.6371
533.4000	78.5811
533.3000	78.5112
533.2000	78.4361
533.1000	78.3575
533.0000	78.2738
532.9000	78.1843
532.8000	78.0952
532.7000	77.9983
532.6000	77.9011
532.5000	77.7968
532.4000	77.692
532.3000	77.5842
532.2000	77.479
532.1000	77.364
532.0000	77.2502
531.9000	77.1358
531.8000	77.0194
531.7000	76.9131
531.6000	76.7988
531.5000	76.6872
531.4000	76.5795
531.3000	76.4733
531.2000	76.367
531.1000	76.2658
531.0000	76.1668
530.9000	76.0754
530.8000	75.9841
530.7000	75.8979
530.6000	75.8192
530.5000	75.7471
530.4000	75.6782
530.3000	75.6182
530.2000	75.5585
530.1000	75.5051
530.0000	75.4654
529.9000	75.4318
529.8000	75.4038
529.7000	75.3833
529.6000	75.3659
529.5000	75.3537
529.4000	75.3532
529.3000	75.3581
529.2000	75.3722
529.1000	75.3896
529.0000	75.4107
528.9000	75.4419
528.8000	75.4848
528.7000	75.5276
528.6000	75.5798
528.5000	75.6329
528.4000	75.6973
528.3000	75.7631
528.2000	75.833
528.1000	75.9093
528.0000	75.9936
527.9000	76.0831
527.8000	76.1679
527.7000	76.2554
527.6000	76.3455
527.5000	76.4453
527.4000	76.5435
527.3000	76.6423
527.2000	76.7393
527.1000	76.8375
527.0000	76.9356
526.9000	77.0292
526.8000	77.1234
526.7000	77.2168
526.6000	77.3092
526.5000	77.3954
526.4000	77.48
526.3000	77.5622
526.2000	77.6451
526.1000	77.7227
526.0000	77.7989
525.9000	77.8641
525.8000	77.9263
525.7000	77.9817
525.6000	78.03
525.5000	78.0713
525.4000	78.1135
525.3000	78.1516
525.2000	78.1734
525.1000	78.1914
525.0000	78.2009
524.9000	78.2074
524.8000	78.2046
524.7000	78.1904
524.6000	78.1688
524.5000	78.1404
524.4000	78.1054
524.3000	78.0667
524.2000	78.0176
524.1000	77.9597
524.0000	77.9007
523.9000	77.8387
523.8000	77.7646
523.7000	77.6863
523.6000	77.6073
523.5000	77.5185
523.4000	77.4273
523.3000	77.3301
523.2000	77.2287
523.1000	77.1265
523.0000	77.0192
522.9000	76.911
522.8000	76.8005
522.7000	76.6855
522.6000	76.5722
522.5000	76.4588
522.4000	76.3437
522.3000	76.2309
522.2000	76.1212
522.1000	76.0108
522.0000	75.9013
521.9000	75.797
521.8000	75.6937
521.7000	75.5921
521.6000	75.4967
521.5000	75.4085
521.4000	75.3234
521.3000	75.2426
521.2000	75.1688
521.1000	75.0973
521.0000	75.0336
520.9000	74.9786
520.8000	74.9239
520.7000	74.8773
520.6000	74.8363
520.5000	74.8076
520.4000	74.7807
520.3000	74.7576
520.2000	74.7474
520.1000	74.7448
520.0000	74.7771
519.9000	74.7922
519.8000	74.8107
519.7000	74.8408
519.6000	74.8755
519.5000	74.9155
519.4000	74.9615
519.3000	75.0111
519.2000	75.0683
519.1000	75.1286
519.0000	75.1949
518.9000	75.2701
518.8000	75.342
518.7000	75.4224
518.6000	75.5012
518.5000	75.5891
518.4000	75.6749
518.3000	75.7607
518.2000	75.8531
518.1000	75.946
518.0000	76.0375
517.9000	76.1281
517.8000	76.2208
517.7000	76.3132
517.6000	76.3973
517.5000	76.4839
517.4000	76.564
517.3000	76.645
517.2000	76.7256
517.1000	76.7938
517.0000	76.8677
516.9000	76.93
516.8000	76.9946
516.7000	77.0495
516.6000	77.0944
516.5000	77.1315
516.4000	77.1693
516.3000	77.1977
516.2000	77.2137
516.1000	77.2284
516.0000	77.2391
515.9000	77.2428
515.8000	77.2421
515.7000	77.2263
515.6000	77.2077
515.5000	77.1852
515.4000	77.1529
515.3000	77.116
515.2000	77.0704
515.1000	77.0211
515.0000	76.9617
514.9000	76.8988
514.8000	76.828
514.7000	76.7528
514.6000	76.6772
514.5000	76.593
514.4000	76.5033
514.3000	76.407
514.2000	76.3087
514.1000	76.2089
514.0000	76.1037
513.9000	75.9938
513.8000	75.8844
513.7000	75.7759
513.6000	75.6589
513.5000	75.547
513.4000	75.4418
513.3000	75.3322
513.2000	75.2234
513.1000	75.1186
513.0000	75.0159
512.9000	74.9133
512.8000	74.8149
512.7000	74.7229
512.6000	74.6301
512.5000	74.5455
512.4000	74.4691
512.3000	74.3982
512.2000	74.3271
512.1000	74.261
512.0000	74.2057
511.9000	74.1499
511.8000	74.1035
511.7000	74.0638
511.6000	74.0311
511.5000	74.006
511.4000	73.9842
511.3000	73.9719
511.2000	73.9696
511.1000	73.9714
511.0000	73.9831
510.9000	73.9993
510.8000	74.0175
510.7000	74.0475
510.6000	74.0869
510.5000	74.1319
510.4000	74.1773
510.3000	74.2333
510.2000	74.2903
510.1000	74.3564
510.0000	74.4255
509.9000	74.496
509.8000	74.5719
509.7000	74.6495
509.6000	74.7318
509.5000	74.814
509.4000	74.8971
509.3000	74.9826
509.2000	75.0701
509.1000	75.1502
509.0000	75.2346
508.9000	75.3147
508.8000	75.4
508.7000	75.4791
508.6000	75.555
508.5000	75.627
508.4000	75.697
508.3000	75.767
508.2000	75.8293
508.1000	75.8869
508.0000	75.9357
507.9000	75.9808
507.8000	76.0225
507.7000	76.0547
507.6000	76.0795
507.5000	76.1051
507.4000	76.1159
507.3000	76.1223
507.2000	76.1239
507.1000	76.1179
507.0000	76.1057
506.9000	76.0833
506.8000	76.0541
506.7000	76.0161
506.6000	75.9748
506.5000	75.9283
506.4000	75.873
506.3000	75.8146
506.2000	75.7465
506.1000	75.6742
506.0000	75.598
505.9000	75.5143
505.8000	75.4288
505.7000	75.3375
505.6000	75.2448
505.5000	75.1458
505.4000	75.041
505.3000	74.9419
505.2000	74.8401
505.1000	74.7348
505.0000	74.6301
504.9000	74.5217
504.8000	74.417
504.7000	74.3102
504.6000	74.2096
504.5000	74.1099
504.4000	74.0096
504.3000	73.916
504.2000	73.8229
504.1000	73.7356
504.0000	73.6498
503.9000	73.5665
503.8000	73.4963
503.7000	73.4231
503.6000	73.3558
503.5000	73.2982
503.4000	73.2427
503.3000	73.2028
503.2000	73.1618
503.1000	73.1306
503.0000	73.1049
502.9000	73.0871
502.8000	73.0782
502.7000	73.0703
502.6000	73.0741
502.5000	73.0849
502.4000	73.1007
502.3000	73.1282
502.2000	73.1604
502.1000	73.1986
502.0000	73.2413
501.9000	73.2886
501.8000	73.3412
501.7000	73.3948
501.6000	73.4562
501.5000	73.5208
501.4000	73.585
501.3000	73.6546
501.2000	73.7254
501.1000	73.8001
501.0000	73.8727
500.9000	73.948
500.8000	74.0244
500.7000	74.0995
500.6000	74.1731
500.5000	74.2437
500.4000	74.3157
500.3000	74.3835
500.2000	74.451
500.1000	74.5129
500.0000	74.5744
499.9000	74.6296
499.8000	74.6884
499.7000	74.7371
499.6000	74.7793
499.5000	74.8157
499.4000	74.8487
499.3000	74.8745
499.2000	74.8915
499.1000	74.9066
499.0000	74.9118
498.9000	74.9118
498.8000	74.9053
498.7000	74.8914
498.6000	74.8701
498.5000	74.8418
498.4000	74.8058
498.3000	74.7638
498.2000	74.7102
498.1000	74.6589
498.0000	74.5993
497.9000	74.5354
497.8000	74.4687
497.7000	74.3924
497.6000	74.3152
497.5000	74.2302
497.4000	74.1391
497.3000	74.0499
497.2000	73.9554
497.1000	73.859
497.0000	73.7619
496.9000	73.6633
496.8000	73.562
496.7000	73.4616
496.6000	73.3625
496.5000	73.261
496.4000	73.1628
496.3000	73.0676
496.2000	72.9686
496.1000	72.8792
496.0000	72.7908
495.9000	72.7039
495.8000	72.6286
495.7000	72.5545
495.6000	72.4875
495.5000	72.4237
495.4000	72.3659
495.3000	72.3142
495.2000	72.2696
495.1000	72.2257
495.0000	72.1927
494.9000	72.1624
494.8000	72.1427
494.7000	72.1241
494.6000	72.1191
494.5000	72.1182
494.4000	72.1235
494.3000	72.1358
494.2000	72.1503
494.1000	72.1731
494.0000	72.1991
493.9000	72.2366
493.8000	72.278
493.7000	72.3227
493.6000	72.3745
493.5000	72.4362
493.4000	72.4927
493.3000	72.5553
493.2000	72.6193
493.1000	72.6915
493.0000	72.7569
492.9000	72.8262
492.8000	72.8942
492.7000	72.9646
492.6000	73.0369
492.5000	73.1021
492.4000	73.1651
492.3000	73.2308
492.2000	73.2918
492.1000	73.3532
492.0000	73.4103
491.9000	73.4565
491.8000	73.5041
491.7000	73.5484
491.6000	73.5853
491.5000	73.6188
491.4000	73.6506
491.3000	73.6698
491.2000	73.6872
491.1000	73.6984
491.0000	73.7038
490.9000	73.7058
490.8000	73.7014
490.7000	73.6852
490.6000	73.6671
490.5000	73.6363
490.4000	73.5974
490.3000	73.5602
490.2000	73.5145
490.1000	73.4653
490.0000	73.4072
489.9000	73.3403
489.8000	73.2722
489.7000	73.2026
489.6000	73.124
489.5000	73.0426
489.4000	72.9603
489.3000	72.8731
489.2000	72.7831
489.1000	72.6901
489.0000	72.5966
488.9000	72.505
488.8000	72.4185
488.7000	72.3288
488.6000	72.2421
488.5000	72.1513
488.4000	72.0663
488.3000	71.985
488.2000	71.9049
488.1000	71.8251
488.0000	71.755
487.9000	71.6874
487.8000	71.6193
487.7000	71.5562
487.6000	71.504
487.5000	71.4524
487.4000	71.4072
487.3000	71.3673
487.2000	71.3309
487.1000	71.3027
487.0000	71.2803
486.9000	71.2652
486.8000	71.2529
486.7000	71.2499
486.6000	71.2492
486.5000	71.2593
486.4000	71.2751
486.3000	71.2948
486.2000	71.3178
486.1000	71.3515
486.0000	71.3815
485.9000	71.4206
485.8000	71.4619
485.7000	71.5091
485.6000	71.5567
485.5000	71.6075
485.4000	71.658
485.3000	71.7135
485.2000	71.7767
485.1000	71.8353
485.0000	71.8975
484.9000	71.9558
484.8000	72.011
484.7000	72.0661
484.6000	72.1233
484.5000	72.178
484.4000	72.2353
484.3000	72.2871
484.2000	72.3333
484.1000	72.3769
484.0000	72.4184
483.9000	72.4547
483.8000	72.4881
483.7000	72.513
483.6000	72.5306
483.5000	72.5445
483.4000	72.5535
483.3000	72.558
483.2000	72.5581
483.1000	72.554
483.0000	72.5399
482.9000	72.5208
482.8000	72.4924
482.7000	72.461
482.6000	72.4275
482.5000	72.3856
482.4000	72.3409
482.3000	72.2893
482.2000	72.2312
482.1000	72.1718
482.0000	72.1077
481.9000	72.0391
481.8000	71.9687
481.7000	71.8974
481.6000	71.8209
481.5000	71.7415
481.4000	71.6619
481.3000	71.5774
481.2000	71.5009
481.1000	71.4228
481.0000	71.3433
480.9000	71.2678
480.8000	71.19
480.7000	71.1154
480.6000	71.0465
480.5000	70.9822
480.4000	70.9202
480.3000	70.862
480.2000	70.8005
480.1000	70.7426
480.0000	70.6934
479.9000	70.6499
479.8000	70.6132
479.7000	70.5852
479.6000	70.5512
479.5000	70.5308
479.4000	70.515
479.3000	70.5021
479.2000	70.4937
479.1000	70.4941
479.0000	70.5045
478.9000	70.5109
478.8000	70.523
478.7000	70.5392
478.6000	70.5681
478.5000	70.6039
478.4000	70.6368
478.3000	70.6736
478.2000	70.7131
478.1000	70.757
478.0000	70.8087
477.9000	70.8557
477.8000	70.9022
477.7000	70.9549
477.6000	71.0123
477.5000	71.0645
477.4000	71.1113
477.3000	71.1602
477.2000	71.2126
477.1000	71.2634
477.0000	71.3076
476.9000	71.3474
476.8000	71.391
476.7000	71.4315
476.6000	71.4678
476.5000	71.4984
476.4000	71.5252
476.3000	71.5461
476.2000	71.569
476.1000	71.5843
476.0000	71.594
475.9000	71.5988
475.8000	71.5976
475.7000	71.592
475.6000	71.5759
475.5000	71.5577
475.4000	71.5367
475.3000	71.5118
475.2000	71.4793
475.1000	71.443
475.0000	71.4054
474.9000	71.3617
474.8000	71.315
474.7000	71.2656
474.6000	71.2057
474.5000	71.1424
474.4000	71.0759
474.3000	71.0085
474.2000	70.9433
474.1000	70.883
474.0000	70.8188
473.9000	70.7544
473.8000	70.6906
473.7000	70.6243
473.6000	70.5611
473.5000	70.4944
473.4000	70.4284
473.3000	70.3674
473.2000	70.3032
473.1000	70.2472
473.0000	70.1991
472.9000	70.1548
472.8000	70.1181
472.7000	70.0826
472.6000	70.0519
472.5000	70.0179
472.4000	69.9948
472.3000	69.9717
472.2000	69.9555
472.1000	69.9447
472.0000	69.9388
471.9000	69.9387
471.8000	69.945
471.7000	69.9537
471.6000	69.9753
471.5000	69.9953
471.4000	70.014
471.3000	70.0407
471.2000	70.067
471.1000	70.0998
471.0000	70.1324
470.9000	70.1721
470.8000	70.211
470.7000	70.2545
470.6000	70.2943
470.5000	70.3362
470.4000	70.3801
470.3000	70.4268
470.2000	70.4707
470.1000	70.5129
470.0000	70.5509
469.9000	70.589
469.8000	70.6295
469.7000	70.6663
469.6000	70.7002
469.5000	70.7315
469.4000	70.7538
469.3000	70.7743
469.2000	70.7949
469.1000	70.8108
469.0000	70.8293
468.9000	70.8395
468.8000	70.8397
468.7000	70.8355
468.6000	70.8308
468.5000	70.8203
468.4000	70.8066
468.3000	70.7892
468.2000	70.7675
468.1000	70.7385
468.0000	70.7031
467.9000	70.6687
467.8000	70.6332
467.7000	70.5985
467.6000	70.5554
467.5000	70.5105
467.4000	70.4566
467.3000	70.4057
467.2000	70.3601
467.1000	70.3124
467.0000	70.2611
466.9000	70.2083
466.8000	70.1564
466.7000	70.1037
466.6000	70.0529
466.5000	70.0002
466.4000	69.9575
466.3000	69.91
466.2000	69.8686
466.1000	69.8192
466.0000	69.7806
465.9000	69.7443
465.8000	69.7131
465.7000	69.6879
465.6000	69.6626
465.5000	69.6381
465.4000	69.6192
465.3000	69.6091
465.2000	69.6005
465.1000	69.5943
465.0000	69.5926
464.9000	69.5999
464.8000	69.606
464.7000	69.6137
464.6000	69.6268
464.5000	69.6479
464.4000	69.6674
464.3000	69.689
464.2000	69.7133
464.1000	69.7396
464.0000	69.7654
463.9000	69.7971
463.8000	69.8313
463.7000	69.8644
463.6000	69.9004
463.5000	69.9365
463.4000	69.9702
463.3000	70.0044
463.2000	70.0378
463.1000	70.0762
463.0000	70.1084
462.9000	70.1392
462.8000	70.1671
462.7000	70.1951
462.6000	70.2175
462.5000	70.2421
462.4000	70.2608
462.3000	70.2766
462.2000	70.2861
462.1000	70.2933
462.0000	70.2995
461.9000	70.2983
461.8000	70.2974
461.7000	70.2926
461.6000	70.2848
461.5000	70.2732
461.4000	70.2552
461.3000	70.2373
461.2000	70.2163
461.1000	70.1935
461.0000	70.1715
460.9000	70.1401
460.8000	70.1129
460.7000	70.0791
460.6000	70.043
460.5000	70.0087
460.4000	69.9697
460.3000	69.9351
460.2000	69.9007
460.1000	69.8623
460.0000	69.8251
459.9000	69.7853
459.8000	69.7541
459.7000	69.7204
459.6000	69.6868
459.5000	69.6541
459.4000	69.6237
459.3000	69.5992
459.2000	69.5735
459.1000	69.5523
459.0000	69.5367
458.9000	69.5196
458.8000	69.5059
458.7000	69.4967
458.6000	69.4865
458.5000	69.4811
458.4000	69.4803
458.3000	69.4854
458.2000	69.4903
458.1000	69.4969
458.0000	69.5083
457.9000	69.5233
457.8000	69.5387
457.7000	69.5533
457.6000	69.5682
457.5000	69.5944
457.4000	69.6166
457.3000	69.6431
457.2000	69.6672
457.1000	69.6942
457.0000	69.7221
456.9000	69.7503
456.8000	69.7775
456.7000	69.8046
456.6000	69.83
456.5000	69.8528
456.4000	69.878
456.3000	69.9007
456.2000	69.9232
456.1000	69.9412
456.0000	69.9637
455.9000	69.9757
455.8000	69.9901
455.7000	70.003
455.6000	70.0153
455.5000	70.0275
455.4000	70.0317
455.3000	70.0347
455.2000	70.0359
455.1000	70.0324
455.0000	70.0289
454.9000	70.025
454.8000	70.0149
454.7000	70.001
454.6000	69.9883
454.5000	69.9796
454.4000	69.9644
454.3000	69.9471
454.2000	69.9299
454.1000	69.9074
454.0000	69.8852
453.9000	69.8591
453.8000	69.8383
453.7000	69.8144
453.6000	69.7909
453.5000	69.7709
453.4000	69.7494
453.3000	69.732
453.2000	69.7151
453.1000	69.699
453.0000	69.6876
452.9000	69.6701
452.8000	69.6587
452.7000	69.6507
452.6000	69.6418
452.5000	69.6374
452.4000	69.634
452.3000	69.6335
452.2000	69.6341
452.1000	69.6385
452.0000	69.6463
451.9000	69.6533
451.8000	69.6625
451.7000	69.6737
451.6000	69.6836
451.5000	69.7025
451.4000	69.708
451.3000	69.7248
451.2000	69.7422
451.1000	69.7606
451.0000	69.7801
450.9000	69.7989
450.8000	69.8184
450.7000	69.8381
450.6000	69.8606
450.5000	69.8815
450.4000	69.8983
450.3000	69.9169
450.2000	69.9369
450.1000	69.9535
450.0000	69.974
449.9000	69.9881
449.8000	70.0118
449.7000	70.0257
449.6000	70.0416
449.5000	70.054
449.4000	70.0652
449.3000	70.0783
449.2000	70.0856
449.1000	70.0891
449.0000	70.0922
448.9000	70.094
448.8000	70.0945
448.7000	70.0937
448.6000	70.0912
448.5000	70.0911
448.4000	70.086
448.3000	70.0833
448.2000	70.074
448.1000	70.0647
448.0000	70.0534
447.9000	70.041
447.8000	70.0342
447.7000	70.0258
447.6000	70.0199
447.5000	70.0159
447.4000	70.0122
447.3000	70.0054
447.2000	69.9993
447.1000	69.9925
447.0000	69.9908
446.9000	69.9856
446.8000	69.9821
446.7000	69.9822
446.6000	69.9857
446.5000	69.9934
446.4000	69.9997
446.3000	70.0078
446.2000	70.0124
446.1000	70.0217
446.0000	70.0365
445.9000	70.0481
445.8000	70.057
445.7000	70.0725
445.6000	70.0877
445.5000	70.1087
445.4000	70.1249
445.3000	70.1441
445.2000	70.1659
445.1000	70.1861
445.0000	70.2044
444.9000	70.2205
444.8000	70.2383
444.7000	70.2601
444.6000	70.2803
444.5000	70.2975
444.4000	70.3061
444.3000	70.3207
444.2000	70.3393
444.1000	70.3547
444.0000	70.3714
443.9000	70.3824
443.8000	70.3945
443.7000	70.4022
443.6000	70.4138
443.5000	70.4163
443.4000	70.4217
443.3000	70.4297
443.2000	70.4329
443.1000	70.4335
443.0000	70.4344
442.9000	70.4317
442.8000	70.4356
442.7000	70.4335
442.6000	70.4308
442.5000	70.4274
442.4000	70.42
442.3000	70.4162
442.2000	70.4094
442.1000	70.4076
442.0000	70.4011
441.9000	70.3984
441.8000	70.3979
441.7000	70.3974
441.6000	70.4004
441.5000	70.4036
441.4000	70.4083
441.3000	70.4163
441.2000	70.42
441.1000	70.4337
441.0000	70.4451
440.9000	70.4584
440.8000	70.4759
440.7000	70.494
440.6000	70.5109
440.5000	70.5281
440.4000	70.5489
440.3000	70.5733
440.2000	70.5988
440.1000	70.6219
440.0000	70.641
439.9000	70.663
439.8000	70.6882
439.7000	70.7103
439.6000	70.7368
439.5000	70.7555
439.4000	70.7731
439.3000	70.7938
439.2000	70.818
439.1000	70.8336
439.0000	70.853
438.9000	70.8706
438.8000	70.8896
438.7000	70.9044
438.6000	70.9161
438.5000	70.9248
438.4000	70.9374
438.3000	70.9504
438.2000	70.9565
438.1000	70.9663
438.0000	70.9697
437.9000	70.9739
437.8000	70.9769
437.7000	70.9814
437.6000	70.9816
437.5000	70.9788
437.4000	70.9792
437.3000	70.9746
437.2000	70.9663
437.1000	70.9658
437.0000	70.9627
436.9000	70.9649
436.8000	70.9631
436.7000	70.9585
436.6000	70.9563
436.5000	70.9552
436.4000	70.9573
436.3000	70.962
436.2000	70.9699
436.1000	70.9739
436.0000	70.978
435.9000	70.9924
435.8000	71.0071
435.7000	71.0222
435.6000	71.0412
435.5000	71.0555
435.4000	71.0732
435.3000	71.0957
435.2000	71.1222
435.1000	71.1484
435.0000	71.1739
434.9000	71.2017
434.8000	71.231
434.7000	71.2592
434.6000	71.2846
434.5000	71.3147
434.4000	71.3465
434.3000	71.3764
434.2000	71.4014
434.1000	71.4286
434.0000	71.459
433.9000	71.4887
433.8000	71.516
433.7000	71.5352
433.6000	71.5555
433.5000	71.5753
433.4000	71.5971
433.3000	71.6101
433.2000	71.6261
433.1000	71.6383
433.0000	71.6535
432.9000	71.6621
432.8000	71.6667
432.7000	71.6685
432.6000	71.6727
432.5000	71.6779
432.4000	71.6782
432.3000	71.6743
432.2000	71.6708
432.1000	71.6669
432.0000	71.6631
431.9000	71.6584
431.8000	71.654
431.7000	71.6507
431.6000	71.6471
431.5000	71.6408
431.4000	71.6353
431.3000	71.6333
431.2000	71.633
431.1000	71.6326
431.0000	71.6328
430.9000	71.6339
430.8000	71.6356
430.7000	71.6435
430.6000	71.6511
430.5000	71.6635
430.4000	71.68
430.3000	71.6938
430.2000	71.7061
430.1000	71.7269
430.0000	71.7439
429.9000	71.7662
429.8000	71.7931
429.7000	71.8178
429.6000	71.8438
429.5000	71.8737
429.4000	71.903
429.3000	71.9321
429.2000	71.9623
429.1000	71.9918
429.0000	72.0195
428.9000	72.0435
428.8000	72.0667
428.7000	72.0908
428.6000	72.1162
428.5000	72.1344
428.4000	72.1568
428.3000	72.1776
428.2000	72.1913
428.1000	72.2071
428.0000	72.2173
427.9000	72.2293
427.8000	72.2393
427.7000	72.2422
427.6000	72.2439
427.5000	72.2454
427.4000	72.2464
427.3000	72.2428
427.2000	72.2363
427.1000	72.2311
427.0000	72.2276
426.9000	72.2213
426.8000	72.2128
426.7000	72.204
426.6000	72.1973
426.5000	72.1883
426.4000	72.1833
426.3000	72.1747
426.2000	72.1655
426.1000	72.1633
426.0000	72.16
425.9000	72.1551
425.8000	72.1574
425.7000	72.1637
425.6000	72.1705
425.5000	72.1801
425.4000	72.1877
425.3000	72.2
425.2000	72.2138
425.1000	72.2332
425.0000	72.2511
424.9000	72.275
424.8000	72.2972
424.7000	72.3193
424.6000	72.3448
424.5000	72.3728
424.4000	72.4009
424.3000	72.4309
424.2000	72.46
424.1000	72.4876
424.0000	72.5153
423.9000	72.5436
423.8000	72.5726
423.7000	72.5991
423.6000	72.6249
423.5000	72.6489
423.4000	72.6712
423.3000	72.6897
423.2000	72.7077
423.1000	72.7299
423.0000	72.7453
422.9000	72.7561
422.8000	72.7636
422.7000	72.7682
422.6000	72.7737
422.5000	72.7817
422.4000	72.7857
422.3000	72.7899
422.2000	72.7908
422.1000	72.7943
422.0000	72.793
421.9000	72.7884
421.8000	72.789
421.7000	72.7842
421.6000	72.7887
421.5000	72.7815
421.4000	72.7803
421.3000	72.7838
421.2000	72.7873
421.1000	72.7911
421.0000	72.7911
420.9000	72.7944
420.8000	72.7974
420.7000	72.7991
420.6000	72.8063
420.5000	72.8122
420.4000	72.8293
420.3000	72.8486
420.2000	72.8582
420.1000	72.8783
420.0000	73.0802
419.9000	73.0987
419.8000	73.1234
419.7000	73.1459
419.6000	73.1733
419.5000	73.201
419.4000	73.2228
419.3000	73.2533
419.2000	73.2809
419.1000	73.3156
419.0000	73.3474
418.9000	73.3817
418.8000	73.4092
418.7000	73.4381
418.6000	73.4612
418.5000	73.4827
418.4000	73.497
418.3000	73.513
418.2000	73.5179
418.1000	73.5295
418.0000	73.5416
417.9000	73.5439
417.8000	73.5477
417.7000	73.547
417.6000	73.5489
417.5000	73.5411
417.4000	73.5355
417.3000	73.5273
417.2000	73.5151
417.1000	73.4975
417.0000	73.4847
416.9000	73.472
416.8000	73.4606
416.7000	73.4498
416.6000	73.4421
416.5000	73.4323
416.4000	73.4124
416.3000	73.4015
416.2000	73.3957
416.1000	73.389
416.0000	73.383
415.9000	73.3758
415.8000	73.3686
415.7000	73.3675
415.6000	73.3726
415.5000	73.38
415.4000	73.3871
415.3000	73.3961
415.2000	73.4044
415.1000	73.4157
415.0000	73.4327
414.9000	73.446
414.8000	73.4633
414.7000	73.4807
414.6000	73.4961
414.5000	73.5151
414.4000	73.5372
414.3000	73.5559
414.2000	73.5767
414.1000	73.5939
414.0000	73.611
413.9000	73.6288
413.8000	73.6478
413.7000	73.6618
413.6000	73.6761
413.5000	73.6852
413.4000	73.689
413.3000	73.6975
413.2000	73.7046
413.1000	73.7086
413.0000	73.7088
412.9000	73.7039
412.8000	73.6955
412.7000	73.6935
412.6000	73.6875
412.5000	73.6807
412.4000	73.6707
412.3000	73.6603
412.2000	73.6428
412.1000	73.6345
412.0000	73.6253
411.9000	73.6142
411.8000	73.6062
411.7000	73.599
411.6000	73.5922
411.5000	73.5852
411.4000	73.5878
411.3000	73.5874
411.2000	73.5877
411.1000	73.5918
411.0000	73.5921
410.9000	73.5999
410.8000	73.61
410.7000	73.6194
410.6000	73.6346
410.5000	73.6473
410.4000	73.6569
410.3000	73.6737
410.2000	73.6904
410.1000	73.7027
410.0000	73.7214
409.9000	73.7429
409.8000	73.7523
409.7000	73.7698
409.6000	73.784
409.5000	73.7983
409.4000	73.8141
409.3000	73.8238
409.2000	73.8314
409.1000	73.8394
409.0000	73.8468
408.9000	73.8459
408.8000	73.8523
408.7000	73.8553
408.6000	73.8557
408.5000	73.8522
408.4000	73.847
408.3000	73.8371
408.2000	73.8276
408.1000	73.8164
408.0000	73.809
407.9000	73.801
407.8000	73.7855
407.7000	73.7686
407.6000	73.7604
407.5000	73.7469
407.4000	73.7274
407.3000	73.7238
407.2000	73.7117
407.1000	73.7011
407.0000	73.6865
406.9000	73.6831
406.8000	73.6744
406.7000	73.6686
406.6000	73.6675
406.5000	73.6647
406.4000	73.6606
406.3000	73.6584
406.2000	73.6629
406.1000	73.6692
406.0000	73.6728
405.9000	73.6807
405.8000	73.6952
405.7000	73.6966
405.6000	73.7018
405.5000	73.7074
405.4000	73.7161
405.3000	73.7215
405.2000	73.7287
405.1000	73.7326
405.0000	73.74
404.9000	73.7474
404.8000	73.752
404.7000	73.7494
404.6000	73.7556
404.5000	73.7582
404.4000	73.7535
404.3000	73.7502
404.2000	73.7407
404.1000	73.7376
404.0000	73.736
403.9000	73.733
403.8000	73.725
403.7000	73.7162
403.6000	73.7074
403.5000	73.7032
403.4000	73.6894
403.3000	73.6802
403.2000	73.6735
403.1000	73.6661
403.0000	73.6538
402.9000	73.6447
402.8000	73.6405
402.7000	73.6314
402.6000	73.6251
402.5000	73.6177
402.4000	73.6094
402.3000	73.5987
402.2000	73.5958
402.1000	73.5895
402.0000	73.5829
401.9000	73.5761
401.8000	73.5728
401.7000	73.5647
401.6000	73.5538
401.5000	73.5472
401.4000	73.5369
401.3000	73.5254
401.2000	73.512
401.1000	73.4955
401.0000	73.483
400.9000	73.4668
400.8000	73.4443
400.7000	73.4251
400.6000	73.4057
400.5000	73.3851
400.4000	73.3634
400.3000	73.333
400.2000	73.3042
400.1000	73.277
400.0000	73.2506
399.9000	73.2213
399.8000	73.1929
399.7000	73.1593
399.6000	73.1283
399.5000	73.1044
399.4000	73.0748
399.3000	73.0451
399.2000	73.0202
399.1000	72.9936
399.0000	72.9644
398.9000	72.9311
398.8000	72.8999
398.7000	72.8733
398.6000	72.8431
398.5000	72.813
398.4000	72.7837
398.3000	72.7496
398.2000	72.7157
398.1000	72.6859
398.0000	72.6511
397.9000	72.6158
397.8000	72.577
397.7000	72.5422
397.6000	72.4996
397.5000	72.4624
397.4000	72.4206
397.3000	72.3865
397.2000	72.3471
397.1000	72.3071
397.0000	72.2677
396.9000	72.2237
396.8000	72.178
396.7000	72.1367
396.6000	72.0881
396.5000	72.046
396.4000	71.9972
396.3000	71.9475
396.2000	71.9
396.1000	71.8537
396.0000	71.8117
395.9000	71.7617
395.8000	71.7082
395.7000	71.6519
395.6000	71.6023
395.5000	71.5479
395.4000	71.5008
395.3000	71.4521
395.2000	71.401
395.1000	71.3493
395.0000	71.3012
394.9000	71.2498
394.8000	71.2018
394.7000	71.1533
394.6000	71.1033
394.5000	71.045
394.4000	70.9905
394.3000	70.9361
394.2000	70.889
394.1000	70.8401
394.0000	70.787
393.9000	70.7384
393.8000	70.6846
393.7000	70.6295
393.6000	70.5797
393.5000	70.5301
393.4000	70.4817
393.3000	70.4285
393.2000	70.3811
393.1000	70.3304
393.0000	70.2818
392.9000	70.2384
392.8000	70.1935
392.7000	70.1475
392.6000	70.1001
392.5000	70.0564
392.4000	70.0124
392.3000	69.9711
392.2000	69.9262
392.1000	69.8876
392.0000	69.8482
391.9000	69.8028
391.8000	69.7583
391.7000	69.7124
391.6000	69.6626
391.5000	69.619
391.4000	69.5753
391.3000	69.5281
391.2000	69.4825
391.1000	69.4322
391.0000	69.3819
390.9000	69.3312
390.8000	69.2729
390.7000	69.2196
390.6000	69.1653
390.5000	69.1046
390.4000	69.0482
390.3000	68.9955
390.2000	68.9399
390.1000	68.8867
390.0000	68.8284
389.9000	68.7708
389.8000	68.7084
389.7000	68.6545
389.6000	68.6006
389.5000	68.5478
389.4000	68.498
389.3000	68.4434
389.2000	68.3979
389.1000	68.3414
389.0000	68.2887
388.9000	68.2406
388.8000	68.1845
388.7000	68.1318
388.6000	68.0741
388.5000	68.02
388.4000	67.9669
388.3000	67.9106
388.2000	67.8628
388.1000	67.8008
388.0000	67.7352
387.9000	67.6744
387.8000	67.6105
387.7000	67.548
387.6000	67.4836
387.5000	67.4154
387.4000	67.3546
387.3000	67.2843
387.2000	67.2178
387.1000	67.146
387.0000	67.0775
386.9000	67.0083
386.8000	66.9454
386.7000	66.8767
386.6000	66.8013
386.5000	66.7371
386.4000	66.6752
386.3000	66.6084
386.2000	66.5412
386.1000	66.4764
386.0000	66.4068
385.9000	66.3478
385.8000	66.2746
385.7000	66.2132
385.6000	66.1493
385.5000	66.0826
385.4000	66.0208
385.3000	65.9541
385.2000	65.8816
385.1000	65.8088
385.0000	65.7405
384.9000	65.6662
384.8000	65.5873
384.7000	65.5105
384.6000	65.4383
384.5000	65.3606
384.4000	65.2872
384.3000	65.2092
384.2000	65.1296
384.1000	65.0505
384.0000	64.9694
383.9000	64.893
383.8000	64.8087
383.7000	64.7276
383.6000	64.6472
383.5000	64.5666
383.4000	64.4861
383.3000	64.4051
383.2000	64.3222
383.1000	64.2417
383.0000	64.1613
382.9000	64.0767
382.8000	63.9921
382.7000	63.9061
382.6000	63.8239
382.5000	63.737
382.4000	63.6485
382.3000	63.5547
382.2000	63.4639
382.1000	63.3714
382.0000	63.2824
381.9000	63.1896
381.8000	63.0948
381.7000	62.9936
381.6000	62.8985
381.5000	62.8036
381.4000	62.7004
381.3000	62.6002
381.2000	62.502
381.1000	62.4021
381.0000	62.301
380.9000	62.1968
380.8000	62.0935
380.7000	61.9958
380.6000	61.8982
380.5000	61.7928
380.4000	61.6847
380.3000	61.5771
380.2000	61.4686
380.1000	61.3649
380.0000	61.2554
379.9000	61.1444
379.8000	61.0321
379.7000	60.9192
379.6000	60.8015
379.5000	60.6827
379.4000	60.5651
379.3000	60.4441
379.2000	60.3208
379.1000	60.1973
379.0000	60.0698
378.9000	59.944
378.8000	59.8142
378.7000	59.691
378.6000	59.5596
378.5000	59.4296
378.4000	59.2979
378.3000	59.1649
378.2000	59.0301
378.1000	58.8967
378.0000	58.7617
377.9000	58.6248
377.8000	58.4833
377.7000	58.3401
377.6000	58.1915
377.5000	58.0434
377.4000	57.8937
377.3000	57.7425
377.2000	57.5884
377.1000	57.4311
377.0000	57.2724
376.9000	57.107
376.8000	56.9464
376.7000	56.7735
376.6000	56.607
376.5000	56.432
376.4000	56.2533
376.3000	56.0729
376.2000	55.8939
376.1000	55.7096
376.0000	55.5311
375.9000	55.3387
375.8000	55.145
375.7000	54.9468
375.6000	54.7523
375.5000	54.5414
375.4000	54.3331
375.3000	54.1249
375.2000	53.9023
375.1000	53.6784
375.0000	53.4458
374.9000	53.2098
374.8000	52.9674
374.7000	52.723
374.6000	52.4664
374.5000	52.2075
374.4000	51.9378
374.3000	51.6619
374.2000	51.381
374.1000	51.0933
374.0000	50.7918
373.9000	50.4958
373.8000	50.1892
373.7000	49.8732
373.6000	49.553
373.5000	49.2288
373.4000	48.8924
373.3000	48.551
373.2000	48.1985
373.1000	47.8322
373.0000	47.4563
372.9000	47.0731
372.8000	46.686
372.7000	46.2939
372.6000	45.8907
372.5000	45.4798
372.4000	45.0578
372.3000	44.6244
372.2000	44.1802
372.1000	43.7266
372.0000	43.2659
371.9000	42.7906
371.8000	42.307
371.7000	41.8204
371.6000	41.3264
371.5000	40.8204
371.4000	40.3059
371.3000	39.7835
371.2000	39.2503
371.1000	38.7097
371.0000	38.1616
370.9000	37.6074
370.8000	37.0412
370.7000	36.4719
370.6000	35.8992
370.5000	35.3154
370.4000	34.719
370.3000	34.1196
370.2000	33.5191
370.1000	32.9051
370.0000	30.2613
369.9000	29.6299
369.8000	29.0054
369.7000	28.3688
369.6000	27.7284
369.5000	27.0852
369.4000	26.4418
369.3000	25.7965
369.2000	25.1525
369.1000	24.5099
369.0000	23.8645
368.9000	23.2157
368.8000	22.5742
368.7000	21.9355
368.6000	21.2965
368.5000	20.6642
368.4000	20.031
368.3000	19.4105
368.2000	18.7926
368.1000	18.1846
368.0000	17.5806
367.9000	16.9848
367.8000	16.3975
367.7000	15.8151
367.6000	15.2379
367.5000	14.673
367.4000	14.119
367.3000	13.5762
367.2000	13.0365
367.1000	12.5107
367.0000	11.9964
366.9000	11.4905
366.8000	10.9975
366.7000	10.5165
366.6000	10.0457
366.5000	9.58421
366.4000	9.13762
366.3000	8.70464
366.2000	8.28223
366.1000	7.87368
366.0000	7.47895
365.9000	7.09317
365.8000	6.71947
365.7000	6.35819
365.6000	6.01109
365.5000	5.67635
365.4000	5.35261
365.3000	5.04144
365.2000	4.74335
365.1000	4.45511
365.0000	4.17748
364.9000	3.91227
364.8000	3.65743
364.7000	3.41343
364.6000	3.18033
364.5000	2.95908
364.4000	2.75013
364.3000	2.55053
364.2000	2.36156
364.1000	2.18325
364.0000	2.01338
363.9000	1.85192
363.8000	1.70079
363.7000	1.55998
363.6000	1.42725
363.5000	1.30201
363.4000	1.18559
363.3000	1.07726
363.2000	0.977301
363.1000	0.884123
363.0000	0.797625
362.9000	0.717659
362.8000	0.643173
362.7000	0.575463
362.6000	0.513553
362.5000	0.456474
362.4000	0.405225
362.3000	0.358959
362.2000	0.316737
362.1000	0.278261
362.0000	0.243623
361.9000	0.212776
361.8000	0.185106
361.7000	0.160752
361.6000	0.13885
361.5000	0.119699
361.4000	0.102952
361.3000	0.0881764
361.2000	0.0755266
361.1000	0.0645001
361.0000	0.0549247
360.9000	0.0468099
360.8000	0.0398418
360.7000	0.0338832
360.6000	0.0288427
360.5000	0.0246154
360.4000	0.0211132
360.3000	0.0181536
360.2000	0.0157387
360.1000	0.0136944
360.0000	0.0120237
359.9000	0.0105786
359.8000	0.00940563
359.7000	0.00850704
359.6000	0.00785647
359.5000	0.00730656
359.4000	0.00678232
359.3000	0.00633522
359.2000	0.00598615
359.1000	0.00568524
359.0000	0.00541236
358.9000	0.00518772
358.8000	0.00496286
358.7000	0.00478718
358.6000	0.00456171
358.5000	0.0044118
358.4000	0.00426192
358.3000	0.00413678
358.2000	0.00408477
358.1000	0.00400846
358.0000	0.00388443
357.9000	0.00371033
357.8000	0.00358619
357.7000	0.0035347
357.6000	0.00343253
357.5000	0.00330925
357.4000	0.00325973
357.3000	0.00318649
357.2000	0.00311323
357.1000	0.00304025
357.0000	0.00299133
356.9000	0.00299084
356.8000	0.00294194
356.7000	0.00282023
356.6000	0.00272301
356.5000	0.00265016
356.4000	0.00260098
356.3000	0.00252802
356.2000	0.00255252
356.1000	0.00250361
356.0000	0.00245467
355.9000	0.00238124
355.8000	0.00238129
355.7000	0.00235686
355.6000	0.00228403
355.5000	0.00223522
355.4000	0.00221152
355.3000	0.00223594
355.2000	0.00223634
355.1000	0.00233412
355.0000	0.00233452
354.9000	0.00231034
354.8000	0.00230963
354.7000	0.00233367
354.6000	0.00228567
354.5000	0.00226174
354.4000	0.00223789
354.3000	0.0022865
354.2000	0.00223756
354.1000	0.00221343
354.0000	0.00226228
353.9000	0.00226256
353.8000	0.00221368
353.7000	0.00214099
353.6000	0.00199424
353.5000	0.00189637
353.4000	0.00184741
353.3000	0.00182305
353.2000	0.00175039
353.1000	0.00165257
353.0000	0.00160315
352.9000	0.00155413
352.8000	0.00157852
352.7000	0.0015787
352.6000	0.00162779
352.5000	0.00157939
352.4000	0.00148183
352.3000	0.00143289
352.2000	0.00140783
352.1000	0.00133411
352.0000	0.00140795
351.9000	0.0014326
351.8000	0.00140838
351.7000	0.00138369
351.6000	0.00140814
351.5000	0.00150604
351.4000	0.00148199
351.3000	0.0014823
351.2000	0.00148196
351.1000	0.00143248
351.0000	0.00143207
350.9000	0.00143192
350.8000	0.00145637
350.7000	0.00148081
350.6000	0.00150592
350.5000	0.00155434
350.4000	0.00152949
350.3000	0.00148078
350.2000	0.00143205
350.1000	0.00148076
350.0000	0.00145617
349.9000	0.00133383
349.8000	0.00133366
349.7000	0.00126038
349.6000	0.00121161
349.5000	0.00118774
349.4000	0.00113941
349.3000	0.00118816
349.2000	0.00118806
349.1000	0.00111427
349.0000	0.00111378
348.9000	0.00108997
348.8000	0.00106609
348.7000	0.00104214
348.6000	0.00104142
348.5000	0.00099262
348.4000	0.000992608
348.3000	0.0010419
348.2000	0.000992976
348.1000	0.00106568
348.0000	0.00104129
347.9000	0.00106527
347.8000	0.00104062
347.7000	0.000991892
347.6000	0.00104105
347.5000	0.00106664
347.4000	0.00111576
347.3000	0.00111562
347.2000	0.00118808
347.1000	0.00126084
347.0000	0.00126148
346.9000	0.00126166
346.8000	0.0012378
346.7000	0.0011888
346.6000	0.00123777
346.5000	0.00123796
346.4000	0.0012381
346.3000	0.0012142
346.2000	0.00126312
346.1000	0.00126299
346.0000	0.00121359
345.9000	0.0011887
345.8000	0.00111493
345.7000	0.0011151
345.6000	0.00109129
345.5000	0.00104236
345.4000	0.00104203
345.3000	0.00106655
345.2000	0.00104124
345.1000	0.00108978
345.0000	0.00113927
344.9000	0.00113993
344.8000	0.00113963
344.7000	0.00113952
344.6000	0.00106622
344.5000	0.00106599
344.4000	0.0010414
344.3000	0.00104131
344.2000	0.00106606
344.1000	0.00109055
344.0000	0.00104157
343.9000	0.0010902
343.8000	0.00113947
343.7000	0.00113911
343.6000	0.001213
343.5000	0.00121326
343.4000	0.00111479
343.3000	0.00113852
343.2000	0.00113814
343.1000	0.0011626
343.0000	0.00121143
342.9000	0.00118697
342.8000	0.00121129
342.7000	0.00125996
342.6000	0.0012111
342.5000	0.00113733
342.4000	0.001137
342.3000	0.00113792
342.2000	0.00108855
342.1000	0.00113745
342.0000	0.00108802
341.9000	0.00106334
341.8000	0.00108772
341.7000	0.00106314
341.6000	0.00106356
341.5000	0.00101486
341.4000	0.000990232
341.3000	0.000990955
341.2000	0.00104017
341.1000	0.000966413
341.0000	0.00108903
340.9000	0.00108925
340.8000	0.00111396
340.7000	0.000990857
340.6000	0.000966092
340.5000	0.000916902
340.4000	0.000941935
340.3000	0.000966838
340.2000	0.000991181
340.1000	0.00099089
340.0000	0.00913758
339.9000	0.00916113
339.8000	0.00916105
339.7000	0.00911182
339.6000	0.0090117
339.5000	0.00908615
339.4000	0.00908613
339.3000	0.00898427
339.2000	0.00891021
339.1000	0.00895745
339.0000	0.00903106
338.9000	0.00893418
338.8000	0.00883487
338.7000	0.00875862
338.6000	0.00882999
338.5000	0.00892735
338.4000	0.00885393
338.3000	0.00875707
338.2000	0.00868172
338.1000	0.00868163
338.0000	0.00860793
337.9000	0.0085563
337.8000	0.00858014
337.7000	0.0086316
337.6000	0.00872893
337.5000	0.00870413
337.4000	0.00865197
337.3000	0.00867375
337.2000	0.00869747
337.1000	0.0086743
337.0000	0.00857542
336.9000	0.00852485
336.8000	0.00849916
336.7000	0.00844878
336.6000	0.00844912
336.5000	0.00844887
336.4000	0.00852143
336.3000	0.00847342
336.2000	0.00834903
336.1000	0.00827357
336.0000	0.00814893
335.9000	0.00812107
335.8000	0.00814485
335.7000	0.00812178
335.6000	0.00812055
335.5000	0.00814295
335.4000	0.00811829
335.3000	0.00801966
335.2000	0.00792109
335.1000	0.00789627
335.0000	0.00789443
334.9000	0.00789431
334.8000	0.00786898
334.7000	0.00781826
334.6000	0.00789008
334.5000	0.00791362
334.4000	0.00793859
334.3000	0.00789001
334.2000	0.00789065
334.1000	0.00786501
334.0000	0.00779109
333.9000	0.00766872
333.8000	0.00771725
333.7000	0.00771577
333.6000	0.00773962
333.5000	0.0076894
333.4000	0.00761517
333.3000	0.00756431
333.2000	0.00756522
333.1000	0.00749215
333.0000	0.00741847
332.9000	0.00744221
332.8000	0.00748951
332.7000	0.00739057
332.6000	0.00729107
332.5000	0.00731556
332.4000	0.0073875
332.3000	0.00743474
332.2000	0.00733471
332.1000	0.00728538
332.0000	0.0073091
331.9000	0.0073568
331.8000	0.00740378
331.7000	0.00735461
331.6000	0.00727905
331.5000	0.00725452
331.4000	0.00725475
331.3000	0.00720575
331.2000	0.00710793
331.1000	0.00718089
331.0000	0.0071811
330.9000	0.00710503
330.8000	0.00703138
330.7000	0.00698265
330.6000	0.00710557
330.5000	0.0071305
330.4000	0.00708322
330.3000	0.00710615
330.2000	0.00705639
330.1000	0.00702975
330.0000	0.00710227
329.9000	0.00719795
329.8000	0.00712334
329.7000	0.00709963
329.6000	0.00707471
329.5000	0.0071486
329.4000	0.00712174
329.3000	0.00714534
329.2000	0.00709691
329.1000	0.0071447
329.0000	0.00707179
328.9000	0.00704556
328.8000	0.00696689
328.7000	0.00696833
328.6000	0.00694503
328.5000	0.00697035
328.4000	0.00694448
328.3000	0.00687052
328.2000	0.00689418
328.1000	0.00684477
328.0000	0.00681964
327.9000	0.00669527
327.8000	0.00669583
327.7000	0.00664755
327.6000	0.00669335
327.5000	0.00662012
327.4000	0.00659441
327.3000	0.00661825
327.2000	0.00671811
327.1000	0.00664453
327.0000	0.00661961
326.9000	0.00659533
326.8000	0.00654636
326.7000	0.0065718
326.6000	0.00657282
326.5000	0.00657122
326.4000	0.00661986
326.3000	0.00664372
326.2000	0.00661949
326.1000	0.00659506
326.0000	0.00662109
325.9000	0.00669326
325.8000	0.00669053
325.7000	0.0066903
325.6000	0.00659081
325.5000	0.00656612
325.4000	0.00658792
325.3000	0.0065372
325.2000	0.00658573
325.1000	0.00660775
325.0000	0.00660453
324.9000	0.00655487
324.8000	0.00650601
324.7000	0.00640832
324.6000	0.00648044
324.5000	0.00643044
324.4000	0.00630653
324.3000	0.00630684
324.2000	0.00625869
324.1000	0.00618481
324.0000	0.00613761
323.9000	0.00611157
323.8000	0.00611335
323.7000	0.00613631
323.6000	0.00606325
323.5000	0.00599104
323.4000	0.00587034
323.3000	0.00584573
323.2000	0.0058679
323.1000	0.0059408
323.0000	0.00579476
322.9000	0.00584432
322.8000	0.00586879
322.7000	0.00579455
322.6000	0.00579353
322.5000	0.00581702
322.4000	0.00579102
322.3000	0.00579098
322.2000	0.00566943
322.1000	0.00566969
322.0000	0.00564449
321.9000	0.0056184
321.8000	0.00574035
321.7000	0.00576626
321.6000	0.00569304
321.5000	0.00569224
321.4000	0.00569048
321.3000	0.0056645
321.2000	0.00564107
321.1000	0.00556707
321.0000	0.00561774
320.9000	0.00554487
320.8000	0.00564275
320.7000	0.00561866
320.6000	0.00561715
320.5000	0.00554425
320.4000	0.00549513
320.3000	0.00549515
320.2000	0.00544419
320.1000	0.00539403
320.0000	0.00539629
319.9000	0.00534833
319.8000	0.00537147
319.7000	0.00529874
319.6000	0.00522486
319.5000	0.00532361
319.4000	0.00524861
319.3000	0.00524691
319.2000	0.00519789
319.1000	0.00514871
319.0000	0.00512431
318.9000	0.00514848
318.8000	0.00517297
318.7000	0.00514775
318.6000	0.00507546
318.5000	0.00512406
318.4000	0.00509716
318.3000	0.00507269
318.2000	0.00509896
318.1000	0.00504929
318.0000	0.00512196
317.9000	0.00504737
317.8000	0.00502403
317.7000	0.00504929
317.6000	0.00502406
317.5000	0.0050478
317.4000	0.00512012
317.3000	0.00502361
317.2000	0.00502248
317.1000	0.00499805
317.0000	0.00497469
316.9000	0.00492608
316.8000	0.00487886
316.7000	0.00487905
316.6000	0.00487779
316.5000	0.00495091
316.4000	0.00490154
316.3000	0.00482872
316.2000	0.00487711
316.1000	0.0048289
316.0000	0.00473211
315.9000	0.00468317
315.8000	0.00465935
315.7000	0.00468306
315.6000	0.00463541
315.5000	0.00463797
315.4000	0.00468563
315.3000	0.00468407
315.2000	0.00473072
315.1000	0.00468121
315.0000	0.00453497
314.9000	0.00446104
314.8000	0.00448473
314.7000	0.00455828
314.6000	0.00448598
314.5000	0.00443718
314.4000	0.0044599
314.3000	0.00450827
314.2000	0.00443335
314.1000	0.00443411
314.0000	0.00440841
313.9000	0.00438212
313.8000	0.00433184
313.7000	0.00433077
313.6000	0.00428243
313.5000	0.00430753
313.4000	0.00438039
313.3000	0.00440466
313.2000	0.004357
313.1000	0.00435515
313.0000	0.00435234
312.9000	0.00440009
312.8000	0.00442466
312.7000	0.00440124
312.6000	0.00449916
312.5000	0.00454611
312.4000	0.00457011
312.3000	0.00459346
312.2000	0.00459277
312.1000	0.0045937
312.0000	0.00461642
311.9000	0.00461533
311.8000	0.00454433
311.7000	0.00454369
311.6000	0.00451971
311.5000	0.00449632
311.4000	0.00451968
311.3000	0.00451879
311.2000	0.00456829
311.1000	0.00454432
311.0000	0.00449478
310.9000	0.00439662
310.8000	0.00439703
310.7000	0.00432321
310.6000	0.00425103
310.5000	0.00420248
310.4000	0.00417973
310.3000	0.00417853
310.2000	0.00417547
310.1000	0.00422512
310.0000	0.00424764
309.9000	0.00422061
309.8000	0.00415008
309.7000	0.0041253
309.6000	0.00402644
309.5000	0.0040235
309.4000	0.00392576
309.3000	0.00392549
309.2000	0.00387784
309.1000	0.0039015
309.0000	0.00397271
308.9000	0.00402083
308.8000	0.00404407
308.7000	0.00396915
308.6000	0.0039701
308.5000	0.00391896
308.4000	0.00389384
308.3000	0.00384664
308.2000	0.00386953
308.1000	0.00389399
308.0000	0.00386927
307.9000	0.00384434
307.8000	0.00389262
307.7000	0.0039159
307.6000	0.00388963
307.5000	0.00388947
307.4000	0.00386481
307.3000	0.00379207
307.2000	0.00371738
307.1000	0.00366854
307.0000	0.00364195
306.9000	0.00361777
306.8000	0.00354596
306.7000	0.00356983
306.6000	0.0035219
306.5000	0.00347369
306.4000	0.00352062
306.3000	0.00354406
306.2000	0.00354481
306.1000	0.00352105
306.0000	0.0035468
305.9000	0.00359594
305.8000	0.00354773
305.7000	0.00359389
305.6000	0.00364206
305.5000	0.00369171
305.4000	0.0037166
305.3000	0.00371774
305.2000	0.00376459
305.1000	0.00373833
305.0000	0.00371412
304.9000	0.00371184
304.8000	0.00373703
304.7000	0.00366475
304.6000	0.00358938
304.5000	0.00363736
304.4000	0.00368311
304.3000	0.00363528
304.2000	0.00365916
304.1000	0.00363473
304.0000	0.00358715
303.9000	0.00358777
303.8000	0.00363704
303.7000	0.00361397
303.6000	0.00366199
303.5000	0.00366261
303.4000	0.0037099
303.3000	0.00363805
303.2000	0.00356215
303.1000	0.00358548
303.0000	0.00361024
302.9000	0.00353661
302.8000	0.00348875
302.7000	0.00346392
302.6000	0.00346306
302.5000	0.00346323
302.4000	0.00346321
302.3000	0.00336782
302.2000	0.00327123
302.1000	0.00329397
302.0000	0.00329398
301.9000	0.00331783
301.8000	0.00327006
301.7000	0.00334028
301.6000	0.00334023
301.5000	0.00336368
301.4000	0.00338689
301.3000	0.00341106
301.2000	0.00336335
301.1000	0.00343529
301.0000	0.00343501
300.9000	0.00336307
300.8000	0.00333918
300.7000	0.00348137
300.6000	0.00355322
300.5000	0.00348151
300.4000	0.00343395
300.3000	0.00338577
300.2000	0.00338572
300.1000	0.00331514
300.0000	0.00333865
299.9000	0.00331487
299.8000	0.00324347
299.7000	0.00317182
299.6000	0.0031476
299.5000	0.00302877
299.4000	0.00298129
299.3000	0.00295766
299.2000	0.00293367
299.1000	0.00286233
299.0000	0.0028149
298.9000	0.00281537
298.8000	0.00279121
298.7000	0.00281475
298.6000	0.00281432
298.5000	0.00281326
298.4000	0.00276519
298.3000	0.00276453
298.2000	0.00276454
298.1000	0.00281087
298.0000	0.00283498
297.9000	0.00288235
297.8000	0.00292958
297.7000	0.00295264
297.6000	0.00300023
297.5000	0.00292934
297.4000	0.00292891
297.3000	0.0029043
297.2000	0.00285715
297.1000	0.00285698
297.0000	0.00280921
296.9000	0.00280982
296.8000	0.00278614
296.7000	0.00273869
296.6000	0.0027864
296.5000	0.00273945
296.4000	0.00273899
296.3000	0.00266701
296.2000	0.00264282
296.1000	0.00269103
296.0000	0.00259521
295.9000	0.00264215
295.8000	0.00259388
295.7000	0.00264187
295.6000	0.00266593
295.5000	0.00259473
295.4000	0.00261786
295.3000	0.00257011
295.2000	0.00256978
295.1000	0.0025462
295.0000	0.00254533
294.9000	0.00259318
294.8000	0.00254611
294.7000	0.00254677
294.6000	0.00252284
294.5000	0.0024751
294.4000	0.00247498
294.3000	0.0024509
294.2000	0.00245219
294.1000	0.0023333
294.0000	0.00230896
293.9000	0.00230894
293.8000	0.00233261
293.7000	0.00235606
293.6000	0.00233228
293.5000	0.00237965
293.4000	0.00233256
293.3000	0.00226123
293.2000	0.00218925
293.1000	0.00221271
293.0000	0.00218955
292.9000	0.00221258
292.8000	0.00228376
292.7000	0.00226025
292.6000	0.00223597
292.5000	0.00230713
292.4000	0.00230698
292.3000	0.00233044
292.2000	0.00228305
292.1000	0.00225879
292.0000	0.00230677
291.9000	0.00221199
291.8000	0.00216393
291.7000	0.00213969
291.6000	0.00223554
291.5000	0.00223549
291.4000	0.00223507
291.3000	0.00218781
291.2000	0.00214048
291.1000	0.00209365
291.0000	0.00202226
290.9000	0.00204608
290.8000	0.00204653
290.7000	0.00195188
290.6000	0.0018807
290.5000	0.00185701
290.4000	0.00180929
290.3000	0.00185665
290.2000	0.00188076
290.1000	0.00192822
290.0000	0.00192738
289.9000	0.00190325
289.8000	0.00195085
289.7000	0.00192766
289.6000	0.00188011
289.5000	0.00190295
289.4000	0.0019979
289.3000	0.00197399
289.2000	0.00194963
289.1000	0.00202058
289.0000	0.00209209
288.9000	0.00213987
288.8000	0.0021639
288.7000	0.00209289
288.6000	0.00206919
288.5000	0.00204549
288.4000	0.00202208
288.3000	0.00202265
288.2000	0.00197502
288.1000	0.00195105
288.0000	0.00199867
287.9000	0.00202291
287.8000	0.00197514
287.7000	0.00197493
287.6000	0.00197548
287.5000	0.00197589
287.4000	0.00192825
287.3000	0.00188107
287.2000	0.0018332
287.1000	0.00185674
287.0000	0.00192738
286.9000	0.00190371
286.8000	0.00185672
286.7000	0.00180896
286.6000	0.00176111
286.5000	0.00173757
286.4000	0.00178453
286.3000	0.00173614
286.2000	0.00175993
286.1000	0.00178423
286.0000	0.00176047
285.9000	0.00171261
285.8000	0.00178321
285.7000	0.001783
285.6000	0.00185389
285.5000	0.00185384
285.4000	0.00175992
285.3000	0.00175984
285.2000	0.00175917
285.1000	0.00178244
285.0000	0.00180677
284.9000	0.00190121
284.8000	0.00180651
284.7000	0.00183103
284.6000	0.00183169
284.5000	0.00178394
284.4000	0.00178328
284.3000	0.00183072
284.2000	0.00173636
284.1000	0.00168879
284.0000	0.00161787
283.9000	0.0016651
283.8000	0.0016645
283.7000	0.00173551
283.6000	0.00171188
283.5000	0.00166446
283.4000	0.00166458
283.3000	0.00161697
283.2000	0.00168829
283.1000	0.00168791
283.0000	0.00168741
282.9000	0.00166353
282.8000	0.00166332
282.7000	0.0015919
282.6000	0.00159159
282.5000	0.00161525
282.4000	0.00163858
282.3000	0.00159159
282.2000	0.00159159
282.1000	0.0014732
282.0000	0.00149667
281.9000	0.00149689
281.8000	0.00147241
281.7000	0.00147226
281.6000	0.00135444
281.5000	0.00130707
281.4000	0.00125907
281.3000	0.0012351
281.2000	0.00125964
281.1000	0.00133093
281.0000	0.00130782
280.9000	0.00130767
280.8000	0.00126036
280.7000	0.00123657
280.6000	0.00130775
280.5000	0.00142635
280.4000	0.00142642
280.3000	0.00142618
280.2000	0.00142668
280.1000	0.00142713
280.0000	0.00145009
279.9000	0.00147345
279.8000	0.00147357
279.7000	0.00145007
279.6000	0.00142595
279.5000	0.00135488
279.4000	0.00137794
279.3000	0.00142513
279.2000	0.00142496
279.1000	0.00147161
279.0000	0.00140055
278.9000	0.00130562
278.8000	0.00125792
278.7000	0.00130528
278.6000	0.00132855
278.5000	0.00130445
278.4000	0.00132853
278.3000	0.00130481
278.2000	0.0013046
278.1000	0.00132813
278.0000	0.0013281
277.9000	0.00137535
277.8000	0.00139927
277.7000	0.00135224
277.6000	0.00142324
277.5000	0.00139969
277.4000	0.00147018
277.3000	0.00147014
277.2000	0.00147107
277.1000	0.00140023
277.0000	0.00132902
276.9000	0.00130532
276.8000	0.00130486
276.7000	0.00130547
276.6000	0.00135327
276.5000	0.00137709
276.4000	0.00132935
276.3000	0.00130515
276.2000	0.00125764
276.1000	0.00132906
276.0000	0.00125859
275.9000	0.00128256
275.8000	0.00123534
275.7000	0.001235
275.6000	0.0012813
275.5000	0.00132882
275.4000	0.00135266
275.3000	0.00132922
275.2000	0.00132928
275.1000	0.00132865
275.0000	0.00132802
274.9000	0.00135136
274.8000	0.00132788
274.7000	0.00132838
274.6000	0.00142266
274.5000	0.00135145
274.4000	0.00135168
274.3000	0.00128053
274.2000	0.00123295
274.1000	0.00123275
274.0000	0.00120927
273.9000	0.00120826
273.8000	0.00123148
273.7000	0.00125502
273.6000	0.00123127
273.5000	0.00125491
273.4000	0.00123107
273.3000	0.0012071
273.2000	0.0012548
273.1000	0.00127841
273.0000	0.00125457
272.9000	0.00132507
272.8000	0.00132427
272.7000	0.00132429
272.6000	0.00132449
272.5000	0.00130102
272.4000	0.00132499
272.3000	0.00132609
272.2000	0.00130304
272.1000	0.00130248
272.0000	0.00134913
271.9000	0.00132532
271.8000	0.00127894
271.7000	0.00123199
271.6000	0.00127851
271.5000	0.00125461
271.4000	0.0012309
271.3000	0.00118394
271.2000	0.00120773
271.1000	0.00127825
271.0000	0.00130129
270.9000	0.00132508
270.8000	0.00125365
270.7000	0.00120531
270.6000	0.00125177
270.5000	0.00127554
270.4000	0.00125251
270.3000	0.00125294
270.2000	0.00129935
270.1000	0.0013463
270.0000	0.00129973
269.9000	0.00127613
269.8000	0.00125318
269.7000	0.0012293
269.6000	0.00122925
269.5000	0.00122988
269.4000	0.00125441
269.3000	0.00127774
269.2000	0.00134888
269.1000	0.00146738
269.0000	0.00139697
268.9000	0.00134987
268.8000	0.00132608
268.7000	0.00134942
268.6000	0.00132641
268.5000	0.0012792
268.4000	0.00125535
268.3000	0.00127894
268.2000	0.00130246
268.1000	0.00130292
268.0000	0.00125558
267.9000	0.00120809
267.8000	0.00120788
267.7000	0.00118468
267.6000	0.00118436
267.5000	0.00109001
267.4000	0.00116075
267.3000	0.00123167
267.2000	0.00125603
267.1000	0.00125622
267.0000	0.00125613
266.9000	0.00130239
266.8000	0.00134948
266.7000	0.00134964
266.6000	0.00132617
266.5000	0.00132595
266.4000	0.00134974
266.3000	0.00132545
266.2000	0.00132514
266.1000	0.00130114
266.0000	0.00130164
265.9000	0.00127795
265.8000	0.00118337
265.7000	0.00118347
265.6000	0.0011589
265.5000	0.00113523
265.4000	0.00115858
265.3000	0.00118354
265.2000	0.0011365
265.1000	0.00108862
265.0000	0.00108837
264.9000	0.0010884
264.8000	0.00106496
264.7000	0.00106534
264.6000	0.00104206
264.5000	0.00106545
264.4000	0.00104182
264.3000	0.00106608
264.2000	0.00109005
264.1000	0.00108952
264.0000	0.00108967
263.9000	0.00111321
263.8000	0.0010894
263.7000	0.00106536
263.6000	0.00108869
263.5000	0.00108955
263.4000	0.00101901
263.3000	0.00101878
263.2000	0.00104204
263.1000	0.000994751
263.0000	0.000970736
262.9000	0.00092387
262.8000	0.000876405
262.7000	0.000828907
262.6000	0.000805142
262.5000	0.000711049
262.4000	0.000639635
262.3000	0.000662806
262.2000	0.00068745
262.1000	0.000664041
262.0000	0.00066429
261.9000	0.000711229
261.8000	0.000805223
261.7000	0.000852297
261.6000	0.000852002
261.5000	0.000946863
261.4000	0.000947137
261.3000	0.00101813
261.2000	0.00104176
261.1000	0.00111258
261.0000	0.00116016
260.9000	0.00120736
260.8000	0.00120795
260.7000	0.00116127
260.6000	0.00120764
260.5000	0.00118385
260.4000	0.00123103
260.3000	0.00120755
260.2000	0.00123151
260.1000	0.00116021
260.0000	0.00118458
259.9000	0.00113733
259.8000	0.00116086
259.7000	0.00113693
259.6000	0.00118379
259.5000	0.00113632
259.4000	0.00113634
259.3000	0.00111272
259.2000	0.00116048
259.1000	0.00118362
259.0000	0.00111298
258.9000	0.0011838
258.8000	0.00111262
258.7000	0.00118318
258.6000	0.00113611
258.5000	0.00118394
258.4000	0.0011362
258.3000	0.00115925
258.2000	0.00118332
258.1000	0.00113639
258.0000	0.00104236
257.9000	0.0010896
257.8000	0.00113673
257.7000	0.00113651
257.6000	0.00113554
257.5000	0.00111223
257.4000	0.00111221
257.3000	0.00104157
257.2000	0.0010895
257.1000	0.0010188
257.0000	0.00101854
256.9000	0.000970742
256.8000	0.000970934
256.7000	0.000971798
256.6000	0.000971059
256.5000	0.00104183
256.4000	0.00108924
256.3000	0.00108907
256.2000	0.0010417
256.1000	0.00106624
256.0000	0.00109066
255.9000	0.00111511
255.8000	0.00111451
255.7000	0.00113781
255.6000	0.00113741
255.5000	0.00113726
255.4000	0.00108997
255.3000	0.00111388
255.2000	0.00116156
255.1000	0.00113754
255.0000	0.00109084
254.9000	0.0010197
254.8000	0.00106674
254.7000	0.00104323
254.6000	0.00101984
254.5000	0.00101988
254.4000	0.0010194
254.3000	0.0010188
254.2000	0.00104319
254.1000	0.00102037
254.0000	0.00095001
253.9000	0.000973959
253.8000	0.00106865
253.7000	0.00109295
253.6000	0.00102164
253.5000	0.0010215
253.4000	0.00104577
253.3000	0.00111722
253.2000	0.00109378
253.1000	0.00111758
253.0000	0.00121235
252.9000	0.00118816
252.8000	0.0011884
252.7000	0.00116481
252.6000	0.00116527
252.5000	0.00116458
252.4000	0.00118787
252.3000	0.00114027
252.2000	0.00114044
252.1000	0.00114004
252.0000	0.00118752
251.9000	0.00118831
251.8000	0.0012353
251.7000	0.00121144
251.6000	0.00121092
251.5000	0.00121108
251.4000	0.00118702
251.3000	0.00123457
251.2000	0.00123481
251.1000	0.00123517
251.0000	0.00123496
250.9000	0.00130628
250.8000	0.00135364
250.7000	0.00144832
250.6000	0.00137731
250.5000	0.00137744
250.4000	0.00137761
250.3000	0.0014013
250.2000	0.00132918
250.1000	0.00137653
250.0000	0.00142499
