TITLE	13.4_NP_0
DATA TYPE	ULTRAVIOLET SPECTRUM
ORIGIN	JASCO
OWNER	
DATE	21/05/03
TIME	15:37:40
SPECTROMETER/DATA SYSTEM	
RESOLUTION	
DELTAX	-0.1
XUNITS	NANOMETERS
YUNITS	TRANSMITTANCE
FIRSTX	  850.0000
LASTX	  250.0000
NPOINTS	    6001
FIRSTY	    82.77745
MAXY	    82.83241
MINY	     0.00077
XYDATA
850.0000	82.7775
849.9000	82.8071
849.8000	82.8177
849.7000	82.8208
849.6000	82.8285
849.5000	82.8303
849.4000	82.8245
849.3000	82.8319
849.2000	82.8324
849.1000	82.8267
849.0000	82.8261
848.9000	82.8154
848.8000	82.7821
848.7000	82.7691
848.6000	82.7417
848.5000	82.7212
848.4000	82.6872
848.3000	82.6482
848.2000	82.6269
848.1000	82.5952
848.0000	82.5696
847.9000	82.5418
847.8000	82.5089
847.7000	82.4716
847.6000	82.4147
847.5000	82.3603
847.4000	82.3125
847.3000	82.2745
847.2000	82.2331
847.1000	82.1921
847.0000	82.1414
846.9000	82.0748
846.8000	82.0181
846.7000	81.9533
846.6000	81.8837
846.5000	81.8142
846.4000	81.7414
846.3000	81.667
846.2000	81.5975
846.1000	81.5164
846.0000	81.4432
845.9000	81.3601
845.8000	81.2622
845.7000	81.1693
845.6000	81.0686
845.5000	80.9729
845.4000	80.8799
845.3000	80.7814
845.2000	80.6813
845.1000	80.588
845.0000	80.4807
844.9000	80.3805
844.8000	80.2791
844.7000	80.1757
844.6000	80.0574
844.5000	79.9525
844.4000	79.8402
844.3000	79.7347
844.2000	79.6234
844.1000	79.5128
844.0000	79.399
843.9000	79.2718
843.8000	79.1476
843.7000	79.0318
843.6000	78.9177
843.5000	78.7963
843.4000	78.6816
843.3000	78.5588
843.2000	78.44
843.1000	78.3225
843.0000	78.2089
842.9000	78.083
842.8000	77.973
842.7000	77.8558
842.6000	77.7474
842.5000	77.6223
842.4000	77.5117
842.3000	77.3976
842.2000	77.282
842.1000	77.1663
842.0000	77.049
841.9000	76.9335
841.8000	76.8179
841.7000	76.7064
841.6000	76.589
841.5000	76.4664
841.4000	76.3475
841.3000	76.2437
841.2000	76.1285
841.1000	76.0118
841.0000	75.8969
840.9000	75.785
840.8000	75.6733
840.7000	75.5641
840.6000	75.4589
840.5000	75.3558
840.4000	75.2581
840.3000	75.1537
840.2000	75.0578
840.1000	74.9522
840.0000	74.8499
839.9000	74.7527
839.8000	74.6569
839.7000	74.5526
839.6000	74.4554
839.5000	74.364
839.4000	74.2725
839.3000	74.1871
839.2000	74.0982
839.1000	74.0177
839.0000	73.9334
838.9000	73.8442
838.8000	73.7523
838.7000	73.6774
838.6000	73.5966
838.5000	73.5281
838.4000	73.4554
838.3000	73.3846
838.2000	73.3202
838.1000	73.2559
838.0000	73.1862
837.9000	73.1153
837.8000	73.0549
837.7000	72.9946
837.6000	72.9469
837.5000	72.8978
837.4000	72.8441
837.3000	72.8066
837.2000	72.7679
837.1000	72.7214
837.0000	72.6813
836.9000	72.6464
836.8000	72.6177
836.7000	72.5909
836.6000	72.5657
836.5000	72.5335
836.4000	72.5119
836.3000	72.4979
836.2000	72.4815
836.1000	72.473
836.0000	72.4566
835.9000	72.4424
835.8000	72.4454
835.7000	72.4342
835.6000	72.4249
835.5000	72.4276
835.4000	72.4288
835.3000	72.4377
835.2000	72.45
835.1000	72.463
835.0000	72.4705
834.9000	72.4962
834.8000	72.5234
834.7000	72.5427
834.6000	72.5684
834.5000	72.5916
834.4000	72.6193
834.3000	72.6555
834.2000	72.6853
834.1000	72.725
834.0000	72.7787
833.9000	72.8237
833.8000	72.8706
833.7000	72.917
833.6000	72.9615
833.5000	73.0097
833.4000	73.0638
833.3000	73.1144
833.2000	73.1701
833.1000	73.2358
833.0000	73.2941
832.9000	73.3652
832.8000	73.4358
832.7000	73.5015
832.6000	73.5717
832.5000	73.6459
832.4000	73.7148
832.3000	73.7946
832.2000	73.8825
832.1000	73.9603
832.0000	74.04
831.9000	74.1255
831.8000	74.2182
831.7000	74.3068
831.6000	74.4013
831.5000	74.4883
831.4000	74.5849
831.3000	74.6746
831.2000	74.7683
831.1000	74.8645
831.0000	74.9701
830.9000	75.074
830.8000	75.1732
830.7000	75.2704
830.6000	75.3702
830.5000	75.4727
830.4000	75.5778
830.3000	75.6802
830.2000	75.7848
830.1000	75.8963
830.0000	75.9989
829.9000	76.1181
829.8000	76.2291
829.7000	76.3436
829.6000	76.4559
829.5000	76.5696
829.4000	76.6791
829.3000	76.791
829.2000	76.911
829.1000	77.0371
829.0000	77.1515
828.9000	77.2756
828.8000	77.3971
828.7000	77.5176
828.6000	77.643
828.5000	77.7658
828.4000	77.8845
828.3000	77.9926
828.2000	78.1143
828.1000	78.2286
828.0000	78.3581
827.9000	78.4744
827.8000	78.5927
827.7000	78.713
827.6000	78.8269
827.5000	78.9281
827.4000	79.0395
827.3000	79.1526
827.2000	79.2679
827.1000	79.3823
827.0000	79.484
826.9000	79.5836
826.8000	79.6878
826.7000	79.7983
826.6000	79.897
826.5000	79.9956
826.4000	80.0895
826.3000	80.1953
826.2000	80.2851
826.1000	80.3688
826.0000	80.4601
825.9000	80.557
825.8000	80.6487
825.7000	80.7199
825.6000	80.7981
825.5000	80.874
825.4000	80.9628
825.3000	81.047
825.2000	81.1248
825.1000	81.1978
825.0000	81.2633
824.9000	81.3336
824.8000	81.3954
824.7000	81.4482
824.6000	81.5148
824.5000	81.5705
824.4000	81.6212
824.3000	81.6663
824.2000	81.7047
824.1000	81.7518
824.0000	81.7899
823.9000	81.8328
823.8000	81.8568
823.7000	81.8836
823.6000	81.9102
823.5000	81.9291
823.4000	81.9585
823.3000	81.9773
823.2000	81.9897
823.1000	81.9976
823.0000	82.0013
822.9000	82.0084
822.8000	82.0048
822.7000	82.0025
822.6000	82.0046
822.5000	81.999
822.4000	81.9886
822.3000	81.9711
822.2000	81.9507
822.1000	81.9288
822.0000	81.9038
821.9000	81.8796
821.8000	81.8425
821.7000	81.8122
821.6000	81.7749
821.5000	81.7428
821.4000	81.7
821.3000	81.6567
821.2000	81.6102
821.1000	81.5631
821.0000	81.5032
820.9000	81.4416
820.8000	81.3814
820.7000	81.3264
820.6000	81.2628
820.5000	81.1992
820.4000	81.1287
820.3000	81.0545
820.2000	80.9806
820.1000	80.8975
820.0000	80.8203
819.9000	80.7338
819.8000	80.6437
819.7000	80.5584
819.6000	80.4679
819.5000	80.3708
819.4000	80.2778
819.3000	80.1787
819.2000	80.083
819.1000	79.9706
819.0000	79.8701
818.9000	79.7653
818.8000	79.6607
818.7000	79.5461
818.6000	79.4311
818.5000	79.3205
818.4000	79.2015
818.3000	79.0871
818.2000	78.9692
818.1000	78.8419
818.0000	78.7233
817.9000	78.6002
817.8000	78.4774
817.7000	78.362
817.6000	78.2357
817.5000	78.1143
817.4000	77.9836
817.3000	77.853
817.2000	77.7247
817.1000	77.6089
817.0000	77.4861
816.9000	77.3586
816.8000	77.2322
816.7000	77.103
816.6000	76.9753
816.5000	76.8559
816.4000	76.7334
816.3000	76.6114
816.2000	76.4858
816.1000	76.3614
816.0000	76.2381
815.9000	76.1178
815.8000	75.9943
815.7000	75.8718
815.6000	75.7522
815.5000	75.6244
815.4000	75.5023
815.3000	75.3783
815.2000	75.2599
815.1000	75.1436
815.0000	75.0302
814.9000	74.9094
814.8000	74.7994
814.7000	74.6853
814.6000	74.5756
814.5000	74.4607
814.4000	74.3506
814.3000	74.24
814.2000	74.1353
814.1000	74.0276
814.0000	73.9213
813.9000	73.8217
813.8000	73.7226
813.7000	73.6286
813.6000	73.5307
813.5000	73.4425
813.4000	73.3527
813.3000	73.264
813.2000	73.1723
813.1000	73.0904
813.0000	73.0068
812.9000	72.929
812.8000	72.854
812.7000	72.7749
812.6000	72.7015
812.5000	72.6308
812.4000	72.5639
812.3000	72.4941
812.2000	72.4387
812.1000	72.3809
812.0000	72.3269
811.9000	72.2679
811.8000	72.2134
811.7000	72.1716
811.6000	72.1157
811.5000	72.074
811.4000	72.0327
811.3000	71.9994
811.2000	71.9641
811.1000	71.9348
811.0000	71.9144
810.9000	71.8844
810.8000	71.8606
810.7000	71.8434
810.6000	71.8256
810.5000	71.8072
810.4000	71.7984
810.3000	71.7861
810.2000	71.7801
810.1000	71.7696
810.0000	71.7786
809.9000	71.7738
809.8000	71.7861
809.7000	71.7908
809.6000	71.8042
809.5000	71.8208
809.4000	71.8341
809.3000	71.8633
809.2000	71.8849
809.1000	71.9183
809.0000	71.9418
808.9000	71.9779
808.8000	72.0139
808.7000	72.055
808.6000	72.0998
808.5000	72.1499
808.4000	72.2026
808.3000	72.2552
808.2000	72.3029
808.1000	72.3593
808.0000	72.4141
807.9000	72.4678
807.8000	72.5312
807.7000	72.5971
807.6000	72.6693
807.5000	72.7359
807.4000	72.8114
807.3000	72.8883
807.2000	72.9646
807.1000	73.0422
807.0000	73.1294
806.9000	73.212
806.8000	73.2929
806.7000	73.3802
806.6000	73.4812
806.5000	73.5773
806.4000	73.672
806.3000	73.7807
806.2000	73.8765
806.1000	73.9767
806.0000	74.0818
805.9000	74.1879
805.8000	74.2943
805.7000	74.4038
805.6000	74.509
805.5000	74.627
805.4000	74.7379
805.3000	74.8513
805.2000	74.968
805.1000	75.0882
805.0000	75.2023
804.9000	75.3231
804.8000	75.448
804.7000	75.5644
804.6000	75.6908
804.5000	75.8186
804.4000	75.9426
804.3000	76.0673
804.2000	76.1906
804.1000	76.3085
804.0000	76.4352
803.9000	76.5581
803.8000	76.6798
803.7000	76.8077
803.6000	76.9325
803.5000	77.0564
803.4000	77.1814
803.3000	77.302
803.2000	77.4221
803.1000	77.5484
803.0000	77.6672
802.9000	77.7837
802.8000	77.9043
802.7000	78.0253
802.6000	78.1503
802.5000	78.2684
802.4000	78.3915
802.3000	78.5118
802.2000	78.6313
802.1000	78.7512
802.0000	78.8703
801.9000	78.9856
801.8000	79.0925
801.7000	79.2012
801.6000	79.3118
801.5000	79.4166
801.4000	79.519
801.3000	79.6248
801.2000	79.7265
801.1000	79.8275
801.0000	79.9245
800.9000	80.0195
800.8000	80.1077
800.7000	80.1977
800.6000	80.2761
800.5000	80.3529
800.4000	80.4231
800.3000	80.4984
800.2000	80.5672
800.1000	80.6331
800.0000	80.6949
799.9000	80.7638
799.8000	80.829
799.7000	80.878
799.6000	80.931
799.5000	80.9742
799.4000	81.0161
799.3000	81.0642
799.2000	81.1023
799.1000	81.1344
799.0000	81.1756
798.9000	81.1987
798.8000	81.23
798.7000	81.2486
798.6000	81.2753
798.5000	81.2959
798.4000	81.3089
798.3000	81.305
798.2000	81.306
798.1000	81.3088
798.0000	81.3014
797.9000	81.2944
797.8000	81.2823
797.7000	81.263
797.6000	81.239
797.5000	81.2143
797.4000	81.1784
797.3000	81.161
797.2000	81.1308
797.1000	81.0968
797.0000	81.0521
796.9000	81.0068
796.8000	80.962
796.7000	80.9144
796.6000	80.859
796.5000	80.8069
796.4000	80.7438
796.3000	80.6809
796.2000	80.6111
796.1000	80.5377
796.0000	80.4716
795.9000	80.3921
795.8000	80.3212
795.7000	80.2286
795.6000	80.1345
795.5000	80.0437
795.4000	79.9523
795.3000	79.85
795.2000	79.7487
795.1000	79.6494
795.0000	79.5502
794.9000	79.4338
794.8000	79.3289
794.7000	79.2189
794.6000	79.1071
794.5000	79.0015
794.4000	78.8798
794.3000	78.7559
794.2000	78.6352
794.1000	78.5166
794.0000	78.3981
793.9000	78.2746
793.8000	78.1437
793.7000	78.021
793.6000	77.8945
793.5000	77.7633
793.4000	77.6327
793.3000	77.5013
793.2000	77.3731
793.1000	77.2399
793.0000	77.1052
792.9000	76.9644
792.8000	76.8297
792.7000	76.7026
792.6000	76.5679
792.5000	76.4296
792.4000	76.2935
792.3000	76.1544
792.2000	76.0214
792.1000	75.8851
792.0000	75.7506
791.9000	75.6166
791.8000	75.4828
791.7000	75.3596
791.6000	75.2194
791.5000	75.0844
791.4000	74.9584
791.3000	74.8342
791.2000	74.7054
791.1000	74.582
791.0000	74.4515
790.9000	74.3257
790.8000	74.2025
790.7000	74.0843
790.6000	73.9582
790.5000	73.8416
790.4000	73.722
790.3000	73.6075
790.2000	73.4896
790.1000	73.3686
790.0000	73.2632
789.9000	73.1595
789.8000	73.0494
789.7000	72.9434
789.6000	72.8438
789.5000	72.7394
789.4000	72.642
789.3000	72.5445
789.2000	72.4515
789.1000	72.3656
789.0000	72.2878
788.9000	72.2019
788.8000	72.1225
788.7000	72.0389
788.6000	71.9665
788.5000	71.8987
788.4000	71.8288
788.3000	71.7596
788.2000	71.7011
788.1000	71.639
788.0000	71.5792
787.9000	71.5272
787.8000	71.4774
787.7000	71.4321
787.6000	71.3843
787.5000	71.3372
787.4000	71.2928
787.3000	71.259
787.2000	71.2268
787.1000	71.1997
787.0000	71.1726
786.9000	71.151
786.8000	71.1252
786.7000	71.1081
786.6000	71.0921
786.5000	71.0815
786.4000	71.0746
786.3000	71.0656
786.2000	71.067
786.1000	71.0725
786.0000	71.0794
785.9000	71.0965
785.8000	71.1164
785.7000	71.1372
785.6000	71.1566
785.5000	71.1838
785.4000	71.2091
785.3000	71.2395
785.2000	71.2775
785.1000	71.3183
785.0000	71.3594
784.9000	71.4037
784.8000	71.4562
784.7000	71.5099
784.6000	71.5615
784.5000	71.6195
784.4000	71.6814
784.3000	71.7404
784.2000	71.8021
784.1000	71.8655
784.0000	71.9374
783.9000	72.0168
783.8000	72.0934
783.7000	72.1716
783.6000	72.2562
783.5000	72.3386
783.4000	72.431
783.3000	72.5246
783.2000	72.6088
783.1000	72.7025
783.0000	72.8039
782.9000	72.9028
782.8000	73.003
782.7000	73.1027
782.6000	73.206
782.5000	73.3103
782.4000	73.4242
782.3000	73.5325
782.2000	73.6503
782.1000	73.7609
782.0000	73.8795
781.9000	73.996
781.8000	74.1095
781.7000	74.2306
781.6000	74.3606
781.5000	74.4864
781.4000	74.6055
781.3000	74.7345
781.2000	74.8637
781.1000	74.992
781.0000	75.1192
780.9000	75.2554
780.8000	75.3863
780.7000	75.5195
780.6000	75.6462
780.5000	75.7894
780.4000	75.9196
780.3000	76.0538
780.2000	76.1851
780.1000	76.3174
780.0000	76.4445
779.9000	76.5806
779.8000	76.7158
779.7000	76.8394
779.6000	76.9678
779.5000	77.1039
779.4000	77.2456
779.3000	77.3733
779.2000	77.4942
779.1000	77.6218
779.0000	77.7518
778.9000	77.8695
778.8000	77.991
778.7000	78.1136
778.6000	78.2356
778.5000	78.3482
778.4000	78.4664
778.3000	78.577
778.2000	78.6846
778.1000	78.801
778.0000	78.9042
777.9000	79.0024
777.8000	79.0953
777.7000	79.1995
777.6000	79.2983
777.5000	79.3845
777.4000	79.4732
777.3000	79.5564
777.2000	79.6407
777.1000	79.7215
777.0000	79.7994
776.9000	79.876
776.8000	79.9516
776.7000	80.0149
776.6000	80.0856
776.5000	80.1406
776.4000	80.2002
776.3000	80.2563
776.2000	80.3047
776.1000	80.3461
776.0000	80.3772
775.9000	80.4136
775.8000	80.4424
775.7000	80.4764
775.6000	80.499
775.5000	80.5202
775.4000	80.5382
775.3000	80.5518
775.2000	80.5549
775.1000	80.5612
775.0000	80.5547
774.9000	80.5557
774.8000	80.5498
774.7000	80.5395
774.6000	80.5232
774.5000	80.5002
774.4000	80.485
774.3000	80.4524
774.2000	80.4247
774.1000	80.3854
774.0000	80.3488
773.9000	80.3033
773.8000	80.2502
773.7000	80.1961
773.6000	80.1403
773.5000	80.0839
773.4000	80.0208
773.3000	79.9506
773.2000	79.8822
773.1000	79.8066
773.0000	79.7298
772.9000	79.6478
772.8000	79.5663
772.7000	79.4861
772.6000	79.3962
772.5000	79.3049
772.4000	79.2094
772.3000	79.1077
772.2000	79.0036
772.1000	78.9001
772.0000	78.7914
771.9000	78.6809
771.8000	78.5727
771.7000	78.4539
771.6000	78.3394
771.5000	78.2215
771.4000	78.0996
771.3000	77.978
771.2000	77.8539
771.1000	77.7264
771.0000	77.5958
770.9000	77.4662
770.8000	77.331
770.7000	77.1983
770.6000	77.0684
770.5000	76.928
770.4000	76.7966
770.3000	76.655
770.2000	76.5135
770.1000	76.3764
770.0000	76.2292
769.9000	76.0799
769.8000	75.9367
769.7000	75.7952
769.6000	75.6489
769.5000	75.5039
769.4000	75.3584
769.3000	75.2148
769.2000	75.0702
769.1000	74.9305
769.0000	74.7915
768.9000	74.6508
768.8000	74.5071
768.7000	74.3651
768.6000	74.2304
768.5000	74.0969
768.4000	73.9644
768.3000	73.8351
768.2000	73.7079
768.1000	73.578
768.0000	73.4463
767.9000	73.3223
767.8000	73.2016
767.7000	73.0765
767.6000	72.9548
767.5000	72.8315
767.4000	72.7134
767.3000	72.6035
767.2000	72.4919
767.1000	72.3824
767.0000	72.274
766.9000	72.1682
766.8000	72.0585
766.7000	71.9579
766.6000	71.8577
766.5000	71.7602
766.4000	71.6695
766.3000	71.5773
766.2000	71.4871
766.1000	71.4046
766.0000	71.3229
765.9000	71.2462
765.8000	71.1686
765.7000	71.0992
765.6000	71.0297
765.5000	70.9665
765.4000	70.9051
765.3000	70.8461
765.2000	70.7964
765.1000	70.7471
765.0000	70.6971
764.9000	70.6551
764.8000	70.6134
764.7000	70.5733
764.6000	70.5417
764.5000	70.51
764.4000	70.4913
764.3000	70.4716
764.2000	70.4528
764.1000	70.4312
764.0000	70.4178
763.9000	70.4097
763.8000	70.4054
763.7000	70.4005
763.6000	70.4025
763.5000	70.4081
763.4000	70.4193
763.3000	70.4332
763.2000	70.4536
763.1000	70.4782
763.0000	70.5045
762.9000	70.5357
762.8000	70.5701
762.7000	70.6072
762.6000	70.6489
762.5000	70.697
762.4000	70.7501
762.3000	70.8021
762.2000	70.8564
762.1000	70.919
762.0000	70.9806
761.9000	71.0488
761.8000	71.1222
761.7000	71.1948
761.6000	71.2726
761.5000	71.3539
761.4000	71.4377
761.3000	71.5268
761.2000	71.6073
761.1000	71.7012
761.0000	71.7952
760.9000	71.893
760.8000	71.9889
760.7000	72.093
760.6000	72.1992
760.5000	72.3044
760.4000	72.4136
760.3000	72.5278
760.2000	72.643
760.1000	72.7634
760.0000	72.8806
759.9000	72.9989
759.8000	73.1226
759.7000	73.2435
759.6000	73.3741
759.5000	73.5038
759.4000	73.6361
759.3000	73.7681
759.2000	73.8994
759.1000	74.0338
759.0000	74.1675
758.9000	74.3042
758.8000	74.444
758.7000	74.5761
758.6000	74.7104
758.5000	74.8453
758.4000	74.9867
758.3000	75.1304
758.2000	75.2659
758.1000	75.4046
758.0000	75.5397
757.9000	75.676
757.8000	75.8126
757.7000	75.9459
757.6000	76.0913
757.5000	76.23
757.4000	76.3674
757.3000	76.5079
757.2000	76.6415
757.1000	76.7804
757.0000	76.9161
756.9000	77.0464
756.8000	77.1685
756.7000	77.2935
756.6000	77.4192
756.5000	77.5459
756.4000	77.6734
756.3000	77.7877
756.2000	77.9046
756.1000	78.0222
756.0000	78.1293
755.9000	78.233
755.8000	78.3378
755.7000	78.4349
755.6000	78.5387
755.5000	78.6267
755.4000	78.7166
755.3000	78.809
755.2000	78.8994
755.1000	78.9805
755.0000	79.0636
754.9000	79.1397
754.8000	79.2092
754.7000	79.279
754.6000	79.3456
754.5000	79.4042
754.4000	79.4568
754.3000	79.5106
754.2000	79.5578
754.1000	79.6055
754.0000	79.6415
753.9000	79.6781
753.8000	79.7139
753.7000	79.7391
753.6000	79.7592
753.5000	79.7764
753.4000	79.789
753.3000	79.7956
753.2000	79.805
753.1000	79.8025
753.0000	79.7939
752.9000	79.7829
752.8000	79.7683
752.7000	79.7501
752.6000	79.7267
752.5000	79.6928
752.4000	79.6578
752.3000	79.6233
752.2000	79.5742
752.1000	79.5251
752.0000	79.4781
751.9000	79.421
751.8000	79.3629
751.7000	79.2932
751.6000	79.2191
751.5000	79.1481
751.4000	79.0675
751.3000	78.9882
751.2000	78.9095
751.1000	78.8209
751.0000	78.7287
750.9000	78.6366
750.8000	78.5346
750.7000	78.4339
750.6000	78.3331
750.5000	78.2198
750.4000	78.1014
750.3000	77.9852
750.2000	77.8589
750.1000	77.743
750.0000	77.6185
749.9000	77.4942
749.8000	77.3697
749.7000	77.2376
749.6000	77.1022
749.5000	76.9694
749.4000	76.8294
749.3000	76.6933
749.2000	76.5594
749.1000	76.4146
749.0000	76.2683
748.9000	76.1303
748.8000	75.9841
748.7000	75.8369
748.6000	75.6946
748.5000	75.5433
748.4000	75.3957
748.3000	75.247
748.2000	75.0967
748.1000	74.9495
748.0000	74.7995
747.9000	74.6465
747.8000	74.4964
747.7000	74.3482
747.6000	74.1986
747.5000	74.053
747.4000	73.9046
747.3000	73.7608
747.2000	73.6126
747.1000	73.4713
747.0000	73.3279
746.9000	73.1878
746.8000	73.044
746.7000	72.9033
746.6000	72.7669
746.5000	72.6304
746.4000	72.4935
746.3000	72.3678
746.2000	72.2458
746.1000	72.1158
746.0000	71.9887
745.9000	71.8656
745.8000	71.7421
745.7000	71.6195
745.6000	71.514
745.5000	71.4034
745.4000	71.2932
745.3000	71.1888
745.2000	71.0896
745.1000	70.9872
745.0000	70.8951
744.9000	70.8044
744.8000	70.7172
744.7000	70.6291
744.6000	70.5437
744.5000	70.4666
744.4000	70.3944
744.3000	70.3254
744.2000	70.2661
744.1000	70.2073
744.0000	70.1462
743.9000	70.0895
743.8000	70.0383
743.7000	69.9901
743.6000	69.9479
743.5000	69.9144
743.4000	69.8797
743.3000	69.8558
743.2000	69.8319
743.1000	69.8097
743.0000	69.7929
742.9000	69.7805
742.8000	69.773
742.7000	69.767
742.6000	69.7707
742.5000	69.7744
742.4000	69.7843
742.3000	69.8035
742.2000	69.8256
742.1000	69.8517
742.0000	69.88
741.9000	69.9144
741.8000	69.9497
741.7000	69.986
741.6000	70.0309
741.5000	70.0845
741.4000	70.1351
741.3000	70.1926
741.2000	70.2523
741.1000	70.3161
741.0000	70.3837
740.9000	70.4543
740.8000	70.5319
740.7000	70.6085
740.6000	70.6887
740.5000	70.7723
740.4000	70.8647
740.3000	70.9544
740.2000	71.0501
740.1000	71.1447
740.0000	71.2384
739.9000	71.3469
739.8000	71.4559
739.7000	71.5715
739.6000	71.6828
739.5000	71.7989
739.4000	71.9268
739.3000	72.0448
739.2000	72.1685
739.1000	72.29
739.0000	72.4217
738.9000	72.5514
738.8000	72.6889
738.7000	72.8196
738.6000	72.9582
738.5000	73.0957
738.4000	73.2332
738.3000	73.3695
738.2000	73.5071
738.1000	73.6482
738.0000	73.7908
737.9000	73.9331
737.8000	74.0686
737.7000	74.2179
737.6000	74.3647
737.5000	74.5156
737.4000	74.6591
737.3000	74.8066
737.2000	74.9483
737.1000	75.0938
737.0000	75.2402
736.9000	75.3797
736.8000	75.5257
736.7000	75.665
736.6000	75.8097
736.5000	75.9501
736.4000	76.0923
736.3000	76.2306
736.2000	76.3693
736.1000	76.5022
736.0000	76.6346
735.9000	76.7605
735.8000	76.8827
735.7000	77.0116
735.6000	77.1344
735.5000	77.2524
735.4000	77.3662
735.3000	77.488
735.2000	77.5972
735.1000	77.7086
735.0000	77.8112
734.9000	77.9119
734.8000	78.0079
734.7000	78.0999
734.6000	78.1911
734.5000	78.2754
734.4000	78.3592
734.3000	78.4411
734.2000	78.5204
734.1000	78.5882
734.0000	78.6555
733.9000	78.7204
733.8000	78.7765
733.7000	78.8255
733.6000	78.8758
733.5000	78.9188
733.4000	78.9554
733.3000	78.9889
733.2000	79.0173
733.1000	79.0425
733.0000	79.0593
732.9000	79.0715
732.8000	79.0762
732.7000	79.0787
732.6000	79.0776
732.5000	79.0672
732.4000	79.0523
732.3000	79.0307
732.2000	79.0093
732.1000	78.9776
732.0000	78.9444
731.9000	78.9068
731.8000	78.8692
731.7000	78.8253
731.6000	78.7713
731.5000	78.7147
731.4000	78.653
731.3000	78.5885
731.2000	78.522
731.1000	78.4477
731.0000	78.3688
730.9000	78.2872
730.8000	78.2003
730.7000	78.1148
730.6000	78.0222
730.5000	77.9291
730.4000	77.8235
730.3000	77.7196
730.2000	77.6106
730.1000	77.4974
730.0000	77.3806
729.9000	77.2601
729.8000	77.1403
729.7000	77.0169
729.6000	76.8849
729.5000	76.7518
729.4000	76.6172
729.3000	76.4828
729.2000	76.348
729.1000	76.2079
729.0000	76.0676
728.9000	75.923
728.8000	75.7794
728.7000	75.6314
728.6000	75.4801
728.5000	75.3312
728.4000	75.1861
728.3000	75.0379
728.2000	74.8859
728.1000	74.7335
728.0000	74.5834
727.9000	74.4372
727.8000	74.2865
727.7000	74.1337
727.6000	73.9827
727.5000	73.8297
727.4000	73.6754
727.3000	73.5254
727.2000	73.376
727.1000	73.2304
727.0000	73.0858
726.9000	72.9391
726.8000	72.7909
726.7000	72.6464
726.6000	72.5035
726.5000	72.363
726.4000	72.2241
726.3000	72.0843
726.2000	71.9514
726.1000	71.8134
726.0000	71.6797
725.9000	71.5519
725.8000	71.425
725.7000	71.2984
725.6000	71.1766
725.5000	71.0536
725.4000	70.9363
725.3000	70.8188
725.2000	70.7131
725.1000	70.6079
725.0000	70.5049
724.9000	70.4094
724.8000	70.3114
724.7000	70.2187
724.6000	70.1276
724.5000	70.0421
724.4000	69.9592
724.3000	69.8842
724.2000	69.8122
724.1000	69.7484
724.0000	69.6847
723.9000	69.63
723.8000	69.5773
723.7000	69.5308
723.6000	69.4877
723.5000	69.4503
723.4000	69.4178
723.3000	69.3809
723.2000	69.3577
723.1000	69.3373
723.0000	69.3212
722.9000	69.3152
722.8000	69.3107
722.7000	69.3068
722.6000	69.3099
722.5000	69.3135
722.4000	69.3311
722.3000	69.3491
722.2000	69.3707
722.1000	69.3945
722.0000	69.425
721.9000	69.4578
721.8000	69.4962
721.7000	69.5432
721.6000	69.5911
721.5000	69.6452
721.4000	69.7031
721.3000	69.7661
721.2000	69.8363
721.1000	69.9105
721.0000	69.9864
720.9000	70.0665
720.8000	70.1479
720.7000	70.2323
720.6000	70.3249
720.5000	70.4261
720.4000	70.519
720.3000	70.6209
720.2000	70.7258
720.1000	70.8327
720.0000	70.9472
719.9000	71.0613
719.8000	71.1795
719.7000	71.3026
719.6000	71.4217
719.5000	71.5467
719.4000	71.6763
719.3000	71.8135
719.2000	71.9481
719.1000	72.0859
719.0000	72.2254
718.9000	72.3617
718.8000	72.5081
718.7000	72.6529
718.6000	72.7968
718.5000	72.9462
718.4000	73.093
718.3000	73.2447
718.2000	73.3942
718.1000	73.5397
718.0000	73.6962
717.9000	73.8471
717.8000	73.9997
717.7000	74.1435
717.6000	74.2917
717.5000	74.4421
717.4000	74.5916
717.3000	74.7436
717.2000	74.8929
717.1000	75.0407
717.0000	75.1913
716.9000	75.3377
716.8000	75.4792
716.7000	75.619
716.6000	75.7599
716.5000	75.9043
716.4000	76.0399
716.3000	76.1771
716.2000	76.3103
716.1000	76.4467
716.0000	76.5768
715.9000	76.6995
715.8000	76.819
715.7000	76.9382
715.6000	77.0521
715.5000	77.1641
715.4000	77.271
715.3000	77.378
715.2000	77.4829
715.1000	77.5803
715.0000	77.6766
714.9000	77.7611
714.8000	77.8455
714.7000	77.9236
714.6000	78.0006
714.5000	78.0673
714.4000	78.1351
714.3000	78.1958
714.2000	78.2561
714.1000	78.3062
714.0000	78.3541
713.9000	78.3938
713.8000	78.4286
713.7000	78.4554
713.6000	78.4771
713.5000	78.5007
713.4000	78.5106
713.3000	78.5176
713.2000	78.5231
713.1000	78.5225
713.0000	78.5139
712.9000	78.5077
712.8000	78.489
712.7000	78.4645
712.6000	78.4344
712.5000	78.4007
712.4000	78.358
712.3000	78.3127
712.2000	78.2634
712.1000	78.207
712.0000	78.1464
711.9000	78.0751
711.8000	78.0057
711.7000	77.9367
711.6000	77.8545
711.5000	77.7633
711.4000	77.6733
711.3000	77.5713
711.2000	77.4729
711.1000	77.3709
711.0000	77.2556
710.9000	77.1403
710.8000	77.0251
710.7000	76.9023
710.6000	76.7791
710.5000	76.6527
710.4000	76.5236
710.3000	76.393
710.2000	76.2549
710.1000	76.1114
710.0000	75.9685
709.9000	75.8321
709.8000	75.6829
709.7000	75.5351
709.6000	75.3835
709.5000	75.2346
709.4000	75.0826
709.3000	74.9305
709.2000	74.773
709.1000	74.6187
709.0000	74.4601
708.9000	74.3005
708.8000	74.1433
708.7000	73.9816
708.6000	73.8243
708.5000	73.6647
708.4000	73.5064
708.3000	73.3449
708.2000	73.1902
708.1000	73.0356
708.0000	72.8783
707.9000	72.7199
707.8000	72.5762
707.7000	72.4293
707.6000	72.2817
707.5000	72.1396
707.4000	71.9936
707.3000	71.857
707.2000	71.7182
707.1000	71.5852
707.0000	71.4529
706.9000	71.3245
706.8000	71.1982
706.7000	71.0722
706.6000	70.9509
706.5000	70.8325
706.4000	70.7207
706.3000	70.6127
706.2000	70.5015
706.1000	70.397
706.0000	70.2957
705.9000	70.1964
705.8000	70.1066
705.7000	70.0145
705.6000	69.9272
705.5000	69.8503
705.4000	69.775
705.3000	69.703
705.2000	69.6361
705.1000	69.5777
705.0000	69.5178
704.9000	69.4677
704.8000	69.4199
704.7000	69.3757
704.6000	69.3391
704.5000	69.3063
704.4000	69.2831
704.3000	69.2642
704.2000	69.2486
704.1000	69.2387
704.0000	69.2344
703.9000	69.233
703.8000	69.2391
703.7000	69.2534
703.6000	69.2694
703.5000	69.2898
703.4000	69.3178
703.3000	69.3521
703.2000	69.3887
703.1000	69.434
703.0000	69.483
702.9000	69.5349
702.8000	69.5966
702.7000	69.6589
702.6000	69.727
702.5000	69.8023
702.4000	69.881
702.3000	69.9645
702.2000	70.0517
702.1000	70.1422
702.0000	70.2424
701.9000	70.3423
701.8000	70.4507
701.7000	70.5572
701.6000	70.6679
701.5000	70.7826
701.4000	70.9015
701.3000	71.0261
701.2000	71.1476
701.1000	71.275
701.0000	71.4096
700.9000	71.5373
700.8000	71.6787
700.7000	71.8151
700.6000	71.9552
700.5000	72.0983
700.4000	72.2432
700.3000	72.3912
700.2000	72.5378
700.1000	72.6888
700.0000	72.8432
699.9000	72.9983
699.8000	73.1499
699.7000	73.2991
699.6000	73.452
699.5000	73.6075
699.4000	73.7595
699.3000	73.9197
699.2000	74.0726
699.1000	74.2298
699.0000	74.3845
698.9000	74.5366
698.8000	74.6867
698.7000	74.8372
698.6000	74.9876
698.5000	75.132
698.4000	75.2788
698.3000	75.419
698.2000	75.5584
698.1000	75.6973
698.0000	75.8329
697.9000	75.9654
697.8000	76.0929
697.7000	76.2224
697.6000	76.3461
697.5000	76.4636
697.4000	76.5768
697.3000	76.6909
697.2000	76.7971
697.1000	76.901
697.0000	76.9987
696.9000	77.0921
696.8000	77.177
696.7000	77.2611
696.6000	77.3399
696.5000	77.4155
696.4000	77.4862
696.3000	77.557
696.2000	77.6212
696.1000	77.6723
696.0000	77.7179
695.9000	77.7559
695.8000	77.7987
695.7000	77.8329
695.6000	77.8649
695.5000	77.8901
695.4000	77.9071
695.3000	77.922
695.2000	77.9335
695.1000	77.9382
695.0000	77.9381
694.9000	77.9295
694.8000	77.9173
694.7000	77.8886
694.6000	77.861
694.5000	77.8322
694.4000	77.797
694.3000	77.7614
694.2000	77.7142
694.1000	77.6593
694.0000	77.5986
693.9000	77.5303
693.8000	77.4605
693.7000	77.3878
693.6000	77.3074
693.5000	77.2275
693.4000	77.1377
693.3000	77.0491
693.2000	76.9539
693.1000	76.8581
693.0000	76.7575
692.9000	76.6458
692.8000	76.5361
692.7000	76.4251
692.6000	76.304
692.5000	76.1837
692.4000	76.0587
692.3000	75.9315
692.2000	75.8004
692.1000	75.6671
692.0000	75.5309
691.9000	75.3884
691.8000	75.245
691.7000	75.1016
691.6000	74.9539
691.5000	74.804
691.4000	74.6505
691.3000	74.5004
691.2000	74.3443
691.1000	74.1851
691.0000	74.0269
690.9000	73.8677
690.8000	73.7092
690.7000	73.5534
690.6000	73.3988
690.5000	73.2378
690.4000	73.0803
690.3000	72.9198
690.2000	72.7637
690.1000	72.6012
690.0000	72.4437
689.9000	72.2881
689.8000	72.1331
689.7000	71.9802
689.6000	71.8294
689.5000	71.6799
689.4000	71.5324
689.3000	71.3865
689.2000	71.2362
689.1000	71.0899
689.0000	70.9487
688.9000	70.8145
688.8000	70.6795
688.7000	70.547
688.6000	70.4185
688.5000	70.2977
688.4000	70.1747
688.3000	70.0542
688.2000	69.9378
688.1000	69.8292
688.0000	69.7229
687.9000	69.6194
687.8000	69.5191
687.7000	69.4254
687.6000	69.3398
687.5000	69.2541
687.4000	69.1713
687.3000	69.0934
687.2000	69.0227
687.1000	68.9612
687.0000	68.8968
686.9000	68.8396
686.8000	68.7903
686.7000	68.7475
686.6000	68.7087
686.5000	68.6708
686.4000	68.6415
686.3000	68.617
686.2000	68.5999
686.1000	68.5856
686.0000	68.5772
685.9000	68.576
685.8000	68.5797
685.7000	68.591
685.6000	68.6071
685.5000	68.6253
685.4000	68.6562
685.3000	68.6894
685.2000	68.7254
685.1000	68.7659
685.0000	68.8119
684.9000	68.8674
684.8000	68.9253
684.7000	68.9878
684.6000	69.0591
684.5000	69.1332
684.4000	69.2145
684.3000	69.3001
684.2000	69.3898
684.1000	69.4823
684.0000	69.5791
683.9000	69.6855
683.8000	69.7939
683.7000	69.9039
683.6000	70.0252
683.5000	70.1496
683.4000	70.2794
683.3000	70.4131
683.2000	70.5524
683.1000	70.7011
683.0000	70.8447
682.9000	70.9968
682.8000	71.1536
682.7000	71.3115
682.6000	71.4721
682.5000	71.6356
682.4000	71.8031
682.3000	71.9726
682.2000	72.1447
682.1000	72.3226
682.0000	72.496
681.9000	72.6745
681.8000	72.8543
681.7000	73.0296
681.6000	73.2078
681.5000	73.3797
681.4000	73.5596
681.3000	73.7376
681.2000	73.9128
681.1000	74.092
681.0000	74.2684
680.9000	74.4468
680.8000	74.6203
680.7000	74.7903
680.6000	74.957
680.5000	75.121
680.4000	75.2889
680.3000	75.4496
680.2000	75.6026
680.1000	75.7577
680.0000	75.9042
679.9000	76.0487
679.8000	76.1856
679.7000	76.3214
679.6000	76.4452
679.5000	76.567
679.4000	76.6852
679.3000	76.792
679.2000	76.8945
679.1000	76.9906
679.0000	77.0858
678.9000	77.1751
678.8000	77.2522
678.7000	77.3243
678.6000	77.3914
678.5000	77.4539
678.4000	77.5124
678.3000	77.5597
678.2000	77.6049
678.1000	77.6407
678.0000	77.6776
677.9000	77.6994
677.8000	77.717
677.7000	77.7305
677.6000	77.7379
677.5000	77.7425
677.4000	77.7314
677.3000	77.7161
677.2000	77.6937
677.1000	77.6678
677.0000	77.6394
676.9000	77.5991
676.8000	77.5528
676.7000	77.5025
676.6000	77.447
676.5000	77.3838
676.4000	77.315
676.3000	77.2443
676.2000	77.1703
676.1000	77.0882
676.0000	77.0004
675.9000	76.9052
675.8000	76.8105
675.7000	76.7072
675.6000	76.6059
675.5000	76.4958
675.4000	76.3826
675.3000	76.268
675.2000	76.1457
675.1000	76.0255
675.0000	75.8974
674.9000	75.7674
674.8000	75.6359
674.7000	75.4997
674.6000	75.3561
674.5000	75.2116
674.4000	75.0668
674.3000	74.9176
674.2000	74.7678
674.1000	74.6157
674.0000	74.4591
673.9000	74.3029
673.8000	74.1466
673.7000	73.983
673.6000	73.8244
673.5000	73.6607
673.4000	73.4993
673.3000	73.3387
673.2000	73.1798
673.1000	73.0185
673.0000	72.8556
672.9000	72.6978
672.8000	72.5402
672.7000	72.3822
672.6000	72.226
672.5000	72.0721
672.4000	71.9174
672.3000	71.7681
672.2000	71.6205
672.1000	71.4822
672.0000	71.3383
671.9000	71.2007
671.8000	71.0673
671.7000	70.936
671.6000	70.8022
671.5000	70.6781
671.4000	70.5619
671.3000	70.4466
671.2000	70.3346
671.1000	70.2286
671.0000	70.1273
670.9000	70.029
670.8000	69.9413
670.7000	69.8533
670.6000	69.7687
670.5000	69.6874
670.4000	69.617
670.3000	69.5481
670.2000	69.4879
670.1000	69.4292
670.0000	69.3794
669.9000	69.3321
669.8000	69.2935
669.7000	69.2587
669.6000	69.2295
669.5000	69.208
669.4000	69.1931
669.3000	69.1864
669.2000	69.1823
669.1000	69.1868
669.0000	69.1948
668.9000	69.2114
668.8000	69.2332
668.7000	69.2633
668.6000	69.2918
668.5000	69.3317
668.4000	69.371
668.3000	69.425
668.2000	69.4757
668.1000	69.5362
668.0000	69.603
667.9000	69.678
667.8000	69.7559
667.7000	69.8384
667.6000	69.9254
667.5000	70.0156
667.4000	70.1143
667.3000	70.2176
667.2000	70.3209
667.1000	70.4304
667.0000	70.549
666.9000	70.667
666.8000	70.795
666.7000	70.9228
666.6000	71.0577
666.5000	71.1949
666.4000	71.3376
666.3000	71.4775
666.2000	71.6192
666.1000	71.7635
666.0000	71.9124
665.9000	72.0661
665.8000	72.2209
665.7000	72.3713
665.6000	72.5325
665.5000	72.6926
665.4000	72.8519
665.3000	73.0155
665.2000	73.1783
665.1000	73.3391
665.0000	73.5027
664.9000	73.6615
664.8000	73.821
664.7000	73.9815
664.6000	74.1478
664.5000	74.308
664.4000	74.4665
664.3000	74.6253
664.2000	74.7814
664.1000	74.9363
664.0000	75.0846
663.9000	75.2359
663.8000	75.3845
663.7000	75.5257
663.6000	75.6655
663.5000	75.799
663.4000	75.9297
663.3000	76.0633
663.2000	76.1874
663.1000	76.307
663.0000	76.4186
662.9000	76.5336
662.8000	76.6403
662.7000	76.7388
662.6000	76.8353
662.5000	76.9301
662.4000	77.0147
662.3000	77.0944
662.2000	77.1641
662.1000	77.2359
662.0000	77.2969
661.9000	77.3567
661.8000	77.4075
661.7000	77.4531
661.6000	77.4925
661.5000	77.5309
661.4000	77.5601
661.3000	77.5776
661.2000	77.5912
661.1000	77.5995
661.0000	77.5989
660.9000	77.5897
660.8000	77.58
660.7000	77.5603
660.6000	77.5386
660.5000	77.5003
660.4000	77.4667
660.3000	77.4216
660.2000	77.3743
660.1000	77.3142
660.0000	77.2481
659.9000	77.1765
659.8000	77.0989
659.7000	77.0142
659.6000	76.9281
659.5000	76.8332
659.4000	76.732
659.3000	76.6273
659.2000	76.5203
659.1000	76.4087
659.0000	76.2852
658.9000	76.1669
658.8000	76.0343
658.7000	75.8999
658.6000	75.76
658.5000	75.6214
658.4000	75.4848
658.3000	75.3375
658.2000	75.1911
658.1000	75.0459
658.0000	74.8956
657.9000	74.7481
657.8000	74.5937
657.7000	74.4391
657.6000	74.2796
657.5000	74.1214
657.4000	73.9666
657.3000	73.8098
657.2000	73.6535
657.1000	73.499
657.0000	73.3424
656.9000	73.1857
656.8000	73.0236
656.7000	72.8687
656.6000	72.7158
656.5000	72.5634
656.4000	72.411
656.3000	72.2578
656.2000	72.1103
656.1000	71.9689
656.0000	71.8253
655.9000	71.6862
655.8000	71.5483
655.7000	71.4149
655.6000	71.2827
655.5000	71.1565
655.4000	71.0314
655.3000	70.915
655.2000	70.8005
655.1000	70.6917
655.0000	70.5864
654.9000	70.4869
654.8000	70.3911
654.7000	70.303
654.6000	70.2183
654.5000	70.1359
654.4000	70.065
654.3000	69.9947
654.2000	69.9338
654.1000	69.874
654.0000	69.8276
653.9000	69.7829
653.8000	69.7478
653.7000	69.7146
653.6000	69.6937
653.5000	69.6739
653.4000	69.6609
653.3000	69.6553
653.2000	69.6579
653.1000	69.662
653.0000	69.6819
652.9000	69.7013
652.8000	69.7241
652.7000	69.7579
652.6000	69.8011
652.5000	69.8488
652.4000	69.9007
652.3000	69.9596
652.2000	70.0241
652.1000	70.0935
652.0000	70.1664
651.9000	70.2506
651.8000	70.3354
651.7000	70.428
651.6000	70.5238
651.5000	70.6274
651.4000	70.7323
651.3000	70.8466
651.2000	70.9678
651.1000	71.0876
651.0000	71.2122
650.9000	71.3403
650.8000	71.4741
650.7000	71.6104
650.6000	71.7518
650.5000	71.8978
650.4000	72.0471
650.3000	72.1952
650.2000	72.3496
650.1000	72.4988
650.0000	72.6576
649.9000	72.8165
649.8000	72.9742
649.7000	73.1332
649.6000	73.2973
649.5000	73.4603
649.4000	73.6211
649.3000	73.7851
649.2000	73.9453
649.1000	74.1083
649.0000	74.2693
648.9000	74.4263
648.8000	74.5851
648.7000	74.7438
648.6000	74.8998
648.5000	75.0582
648.4000	75.2093
648.3000	75.3602
648.2000	75.5071
648.1000	75.6509
648.0000	75.7872
647.9000	75.9261
647.8000	76.0599
647.7000	76.1899
647.6000	76.3154
647.5000	76.4387
647.4000	76.5556
647.3000	76.6729
647.2000	76.7798
647.1000	76.8771
647.0000	76.9732
646.9000	77.0597
646.8000	77.14
646.7000	77.2161
646.6000	77.2858
646.5000	77.3537
646.4000	77.4117
646.3000	77.464
646.2000	77.5105
646.1000	77.5514
646.0000	77.5862
645.9000	77.6129
645.8000	77.6318
645.7000	77.6377
645.6000	77.6448
645.5000	77.6476
645.4000	77.6405
645.3000	77.6284
645.2000	77.6124
645.1000	77.5839
645.0000	77.5509
644.9000	77.5081
644.8000	77.4631
644.7000	77.4086
644.6000	77.3469
644.5000	77.2809
644.4000	77.2086
644.3000	77.1263
644.2000	77.045
644.1000	76.9594
644.0000	76.8619
643.9000	76.7611
643.8000	76.6555
643.7000	76.548
643.6000	76.4326
643.5000	76.3204
643.4000	76.1995
643.3000	76.0756
643.2000	75.946
643.1000	75.813
643.0000	75.6762
642.9000	75.534
642.8000	75.3878
642.7000	75.2426
642.6000	75.0924
642.5000	74.9418
642.4000	74.7877
642.3000	74.6331
642.2000	74.4778
642.1000	74.3196
642.0000	74.1647
641.9000	74.0015
641.8000	73.8449
641.7000	73.686
641.6000	73.5293
641.5000	73.3742
641.4000	73.2175
641.3000	73.066
641.2000	72.9177
641.1000	72.767
641.0000	72.6204
640.9000	72.4743
640.8000	72.333
640.7000	72.1938
640.6000	72.0602
640.5000	71.9285
640.4000	71.7952
640.3000	71.6746
640.2000	71.5586
640.1000	71.4438
640.0000	71.3345
639.9000	71.2262
639.8000	71.1296
639.7000	71.0367
639.6000	70.9455
639.5000	70.8656
639.4000	70.7868
639.3000	70.7147
639.2000	70.6507
639.1000	70.5917
639.0000	70.5366
638.9000	70.488
638.8000	70.4502
638.7000	70.4144
638.6000	70.3807
638.5000	70.3589
638.4000	70.344
638.3000	70.3398
638.2000	70.3359
638.1000	70.3383
638.0000	70.3527
637.9000	70.3692
637.8000	70.3913
637.7000	70.422
637.6000	70.4594
637.5000	70.5023
637.4000	70.5505
637.3000	70.6052
637.2000	70.6673
637.1000	70.7355
637.0000	70.8105
636.9000	70.8929
636.8000	70.9785
636.7000	71.0691
636.6000	71.166
636.5000	71.2651
636.4000	71.3714
636.3000	71.4857
636.2000	71.6051
636.1000	71.7267
636.0000	71.8519
635.9000	71.9813
635.8000	72.1159
635.7000	72.2566
635.6000	72.3939
635.5000	72.5361
635.4000	72.6804
635.3000	72.8245
635.2000	72.9765
635.1000	73.1286
635.0000	73.2801
634.9000	73.4408
634.8000	73.5989
634.7000	73.7539
634.6000	73.9089
634.5000	74.0711
634.4000	74.2306
634.3000	74.3908
634.2000	74.5504
634.1000	74.7042
634.0000	74.8646
633.9000	75.0225
633.8000	75.1796
633.7000	75.3327
633.6000	75.4794
633.5000	75.6292
633.4000	75.7843
633.3000	75.9255
633.2000	76.0594
633.1000	76.1922
633.0000	76.33
632.9000	76.455
632.8000	76.5762
632.7000	76.6925
632.6000	76.808
632.5000	76.923
632.4000	77.0224
632.3000	77.1241
632.2000	77.2218
632.1000	77.3107
632.0000	77.3965
631.9000	77.4707
631.8000	77.5354
631.7000	77.6001
631.6000	77.6611
631.5000	77.7141
631.4000	77.758
631.3000	77.797
631.2000	77.8305
631.1000	77.8581
631.0000	77.872
630.9000	77.8847
630.8000	77.8926
630.7000	77.8827
630.6000	77.8663
630.5000	77.8504
630.4000	77.8278
630.3000	77.7965
630.2000	77.7578
630.1000	77.7136
630.0000	77.6646
629.9000	77.61
629.8000	77.5465
629.7000	77.4755
629.6000	77.4031
629.5000	77.324
629.4000	77.2403
629.3000	77.1395
629.2000	77.0419
629.1000	76.9415
629.0000	76.8338
628.9000	76.7215
628.8000	76.5989
628.7000	76.4791
628.6000	76.352
628.5000	76.221
628.4000	76.0885
628.3000	75.9544
628.2000	75.8162
628.1000	75.6785
628.0000	75.5339
627.9000	75.3824
627.8000	75.2326
627.7000	75.0917
627.6000	74.9406
627.5000	74.7934
627.4000	74.646
627.3000	74.4987
627.2000	74.3533
627.1000	74.199
627.0000	74.0552
626.9000	73.9084
626.8000	73.7618
626.7000	73.6153
626.6000	73.4684
626.5000	73.3267
626.4000	73.19
626.3000	73.0604
626.2000	72.9308
626.1000	72.8004
626.0000	72.6804
625.9000	72.5578
625.8000	72.4379
625.7000	72.3236
625.6000	72.215
625.5000	72.1145
625.4000	72.0128
625.3000	71.9198
625.2000	71.8333
625.1000	71.7512
625.0000	71.6745
624.9000	71.6017
624.8000	71.534
624.7000	71.4742
624.6000	71.4217
624.5000	71.3759
624.4000	71.3309
624.3000	71.2937
624.2000	71.2646
624.1000	71.2416
624.0000	71.2244
623.9000	71.2181
623.8000	71.2193
623.7000	71.2261
623.6000	71.232
623.5000	71.2457
623.4000	71.2724
623.3000	71.3069
623.2000	71.3485
623.1000	71.3899
623.0000	71.4368
622.9000	71.491
622.8000	71.5543
622.7000	71.6251
622.6000	71.7067
622.5000	71.7885
622.4000	71.8745
622.3000	71.9665
622.2000	72.0638
622.1000	72.1671
622.0000	72.2822
621.9000	72.4
621.8000	72.5221
621.7000	72.6457
621.6000	72.7722
621.5000	72.9071
621.4000	73.0477
621.3000	73.1922
621.2000	73.3354
621.1000	73.4826
621.0000	73.6286
620.9000	73.7792
620.8000	73.9325
620.7000	74.0856
620.6000	74.2443
620.5000	74.3976
620.4000	74.5537
620.3000	74.7138
620.2000	74.8693
620.1000	75.0258
620.0000	75.1795
619.9000	75.3348
619.8000	75.4854
619.7000	75.6353
619.6000	75.7828
619.5000	75.932
619.4000	76.0758
619.3000	76.2203
619.2000	76.3619
619.1000	76.5006
619.0000	76.626
618.9000	76.7568
618.8000	76.8805
618.7000	76.9972
618.6000	77.1083
618.5000	77.218
618.4000	77.3214
618.3000	77.4223
618.2000	77.5172
618.1000	77.6055
618.0000	77.695
617.9000	77.7733
617.8000	77.8441
617.7000	77.9096
617.6000	77.9715
617.5000	78.0247
617.4000	78.0755
617.3000	78.1134
617.2000	78.1466
617.1000	78.1776
617.0000	78.206
616.9000	78.224
616.8000	78.2344
616.7000	78.2332
616.6000	78.2309
616.5000	78.2211
616.4000	78.2022
616.3000	78.1734
616.2000	78.1429
616.1000	78.0979
616.0000	78.0501
615.9000	77.9948
615.8000	77.9362
615.7000	77.8716
615.6000	77.7998
615.5000	77.7224
615.4000	77.6323
615.3000	77.5421
615.2000	77.4508
615.1000	77.3515
615.0000	77.2457
614.9000	77.1331
614.8000	77.0128
614.7000	76.8948
614.6000	76.7671
614.5000	76.6457
614.4000	76.514
614.3000	76.3813
614.2000	76.2435
614.1000	76.1088
614.0000	75.97
613.9000	75.8226
613.8000	75.6807
613.7000	75.534
613.6000	75.3845
613.5000	75.2388
613.4000	75.0921
613.3000	74.9476
613.2000	74.8037
613.1000	74.6598
613.0000	74.5208
612.9000	74.3802
612.8000	74.2411
612.7000	74.1063
612.6000	73.9736
612.5000	73.8378
612.4000	73.7086
612.3000	73.5833
612.2000	73.4656
612.1000	73.35
612.0000	73.2404
611.9000	73.1282
611.8000	73.0231
611.7000	72.9204
611.6000	72.8244
611.5000	72.7329
611.4000	72.6518
611.3000	72.5729
611.2000	72.5057
611.1000	72.4372
611.0000	72.3782
610.9000	72.329
610.8000	72.2816
610.7000	72.2431
610.6000	72.2074
610.5000	72.1823
610.4000	72.1619
610.3000	72.1526
610.2000	72.1477
610.1000	72.1511
610.0000	72.1643
609.9000	72.184
609.8000	72.2057
609.7000	72.2354
609.6000	72.268
609.5000	72.3122
609.4000	72.3628
609.3000	72.4149
609.2000	72.4803
609.1000	72.5482
609.0000	72.6227
608.9000	72.6993
608.8000	72.7846
608.7000	72.8781
608.6000	72.9741
608.5000	73.0727
608.4000	73.1806
608.3000	73.2925
608.2000	73.4039
608.1000	73.5224
608.0000	73.6501
607.9000	73.7757
607.8000	73.9051
607.7000	74.0418
607.6000	74.1761
607.5000	74.3156
607.4000	74.4572
607.3000	74.6036
607.2000	74.7484
607.1000	74.8935
607.0000	75.043
606.9000	75.1961
606.8000	75.3493
606.7000	75.4989
606.6000	75.6521
606.5000	75.8016
606.4000	75.9461
606.3000	76.0942
606.2000	76.2387
606.1000	76.3814
606.0000	76.524
605.9000	76.6654
605.8000	76.8007
605.7000	76.9307
605.6000	77.0616
605.5000	77.1876
605.4000	77.3103
605.3000	77.4261
605.2000	77.5348
605.1000	77.6411
605.0000	77.7423
604.9000	77.8421
604.8000	77.9313
604.7000	78.0158
604.6000	78.0958
604.5000	78.1679
604.4000	78.2343
604.3000	78.2968
604.2000	78.3546
604.1000	78.4054
604.0000	78.4467
603.9000	78.4805
603.8000	78.5068
603.7000	78.5262
603.6000	78.5373
603.5000	78.5437
603.4000	78.5454
603.3000	78.5359
603.2000	78.5212
603.1000	78.5035
603.0000	78.4728
602.9000	78.4406
602.8000	78.4014
602.7000	78.3527
602.6000	78.2976
602.5000	78.2322
602.4000	78.1645
602.3000	78.09
602.2000	78.0088
602.1000	77.9263
602.0000	77.8357
601.9000	77.7388
601.8000	77.6319
601.7000	77.5281
601.6000	77.4215
601.5000	77.3073
601.4000	77.1937
601.3000	77.074
601.2000	76.9516
601.1000	76.8269
601.0000	76.6938
600.9000	76.562
600.8000	76.4276
600.7000	76.2941
600.6000	76.1617
600.5000	76.026
600.4000	75.8848
600.3000	75.7476
600.2000	75.6151
600.1000	75.4781
600.0000	75.4176
599.9000	75.2853
599.8000	75.1485
599.7000	75.0207
599.6000	74.8924
599.5000	74.7652
599.4000	74.6465
599.3000	74.5279
599.2000	74.4087
599.1000	74.2963
599.0000	74.1886
598.9000	74.0882
598.8000	73.9894
598.7000	73.8928
598.6000	73.8018
598.5000	73.7163
598.4000	73.6405
598.3000	73.574
598.2000	73.5073
598.1000	73.4468
598.0000	73.3957
597.9000	73.355
597.8000	73.3164
597.7000	73.281
597.6000	73.2591
597.5000	73.2376
597.4000	73.2245
597.3000	73.2204
597.2000	73.2223
597.1000	73.2338
597.0000	73.2507
596.9000	73.2785
596.8000	73.3076
596.7000	73.3442
596.6000	73.3895
596.5000	73.4397
596.4000	73.4991
596.3000	73.558
596.2000	73.6292
596.1000	73.7079
596.0000	73.7894
595.9000	73.8811
595.8000	73.9759
595.7000	74.075
595.6000	74.18
595.5000	74.2871
595.4000	74.3981
595.3000	74.5167
595.2000	74.6393
595.1000	74.7622
595.0000	74.8925
594.9000	75.0285
594.8000	75.1627
594.7000	75.3034
594.6000	75.4424
594.5000	75.5828
594.4000	75.7246
594.3000	75.866
594.2000	76.011
594.1000	76.1551
594.0000	76.3013
593.9000	76.4475
593.8000	76.5961
593.7000	76.7368
593.6000	76.8754
593.5000	77.0196
593.4000	77.1581
593.3000	77.2883
593.2000	77.4206
593.1000	77.549
593.0000	77.6716
592.9000	77.7893
592.8000	77.9086
592.7000	78.0214
592.6000	78.1308
592.5000	78.2334
592.4000	78.33
592.3000	78.4214
592.2000	78.5013
592.1000	78.583
592.0000	78.6598
591.9000	78.7229
591.8000	78.7801
591.7000	78.8367
591.6000	78.8834
591.5000	78.9251
591.4000	78.9574
591.3000	78.9869
591.2000	79.0105
591.1000	79.026
591.0000	79.0275
590.9000	79.0279
590.8000	79.0211
590.7000	79.01
590.6000	78.994
590.5000	78.9641
590.4000	78.9294
590.3000	78.8863
590.2000	78.8403
590.1000	78.7856
590.0000	78.7253
589.9000	78.6567
589.8000	78.5891
589.7000	78.5162
589.6000	78.4297
589.5000	78.3441
589.4000	78.2541
589.3000	78.1562
589.2000	78.0529
589.1000	77.9463
589.0000	77.8347
588.9000	77.723
588.8000	77.6107
588.7000	77.4936
588.6000	77.3714
588.5000	77.2516
588.4000	77.1259
588.3000	77.0017
588.2000	76.8751
588.1000	76.7437
588.0000	76.616
587.9000	76.4831
587.8000	76.3564
587.7000	76.2297
587.6000	76.1051
587.5000	75.9778
587.4000	75.8552
587.3000	75.7347
587.2000	75.6144
587.1000	75.5002
587.0000	75.3869
586.9000	75.2716
586.8000	75.1673
586.7000	75.0661
586.6000	74.9661
586.5000	74.8739
586.4000	74.7858
586.3000	74.7018
586.2000	74.6229
586.1000	74.5498
586.0000	74.4827
585.9000	74.4231
585.8000	74.3669
585.7000	74.3168
585.6000	74.2718
585.5000	74.233
585.4000	74.2064
585.3000	74.1842
585.2000	74.168
585.1000	74.1603
585.0000	74.158
584.9000	74.1585
584.8000	74.1619
584.7000	74.1827
584.6000	74.2049
584.5000	74.2364
584.4000	74.2725
584.3000	74.3126
584.2000	74.3676
584.1000	74.4217
584.0000	74.4885
583.9000	74.5609
583.8000	74.6365
583.7000	74.7158
583.6000	74.7997
583.5000	74.8853
583.4000	74.9813
583.3000	75.0876
583.2000	75.1996
583.1000	75.3067
583.0000	75.4227
582.9000	75.5393
582.8000	75.659
582.7000	75.7833
582.6000	75.9074
582.5000	76.0378
582.4000	76.1632
582.3000	76.2935
582.2000	76.4232
582.1000	76.5569
582.0000	76.692
581.9000	76.8311
581.8000	76.9662
581.7000	77.0971
581.6000	77.2276
581.5000	77.3577
581.4000	77.4875
581.3000	77.6111
581.2000	77.7369
581.1000	77.86
581.0000	77.9774
580.9000	78.0929
580.8000	78.2026
580.7000	78.31
580.6000	78.4132
580.5000	78.5161
580.4000	78.6082
580.3000	78.6947
580.2000	78.7765
580.1000	78.8517
580.0000	78.9236
579.9000	78.988
579.8000	79.0442
579.7000	79.0998
579.6000	79.142
579.5000	79.1842
579.4000	79.212
579.3000	79.2388
579.2000	79.2591
579.1000	79.2741
579.0000	79.2818
578.9000	79.277
578.8000	79.2694
578.7000	79.2546
578.6000	79.2332
578.5000	79.2046
578.4000	79.1701
578.3000	79.1317
578.2000	79.0855
578.1000	79.0289
578.0000	78.9737
577.9000	78.9063
577.8000	78.842
577.7000	78.7657
577.6000	78.6886
577.5000	78.5998
577.4000	78.5084
577.3000	78.4146
577.2000	78.3225
577.1000	78.2211
577.0000	78.1197
576.9000	78.0142
576.8000	77.9038
576.7000	77.792
576.6000	77.6777
576.5000	77.565
576.4000	77.446
576.3000	77.3309
576.2000	77.2113
576.1000	77.0925
576.0000	76.9729
575.9000	76.8555
575.8000	76.7391
575.7000	76.6246
575.6000	76.5075
575.5000	76.3931
575.4000	76.2795
575.3000	76.1724
575.2000	76.0687
575.1000	75.9638
575.0000	75.8664
574.9000	75.7741
574.8000	75.6865
574.7000	75.6002
574.6000	75.5151
574.5000	75.4373
574.4000	75.3659
574.3000	75.3005
574.2000	75.2371
574.1000	75.1787
574.0000	75.1272
573.9000	75.0866
573.8000	75.0462
573.7000	75.0155
573.6000	74.9872
573.5000	74.9695
573.4000	74.9579
573.3000	74.9524
573.2000	74.9488
573.1000	74.9557
573.0000	74.9736
572.9000	74.9983
572.8000	75.0229
572.7000	75.0545
572.6000	75.0951
572.5000	75.1434
572.4000	75.1951
572.3000	75.2538
572.2000	75.3225
572.1000	75.3931
572.0000	75.4757
571.9000	75.5573
571.8000	75.644
571.7000	75.7358
571.6000	75.832
571.5000	75.9314
571.4000	76.0333
571.3000	76.1386
571.2000	76.2507
571.1000	76.3649
571.0000	76.4813
570.9000	76.5978
570.8000	76.7179
570.7000	76.837
570.6000	76.9561
570.5000	77.0807
570.4000	77.1972
570.3000	77.3223
570.2000	77.443
570.1000	77.5637
570.0000	77.6838
569.9000	77.8048
569.8000	77.9216
569.7000	78.035
569.6000	78.145
569.5000	78.2586
569.4000	78.367
569.3000	78.4733
569.2000	78.5734
569.1000	78.6679
569.0000	78.7592
568.9000	78.8424
568.8000	78.928
568.7000	78.9977
568.6000	79.0677
568.5000	79.1312
568.4000	79.1906
568.3000	79.2379
568.2000	79.2883
568.1000	79.3281
568.0000	79.3626
567.9000	79.387
567.8000	79.405
567.7000	79.4177
567.6000	79.4272
567.5000	79.4252
567.4000	79.4192
567.3000	79.4061
567.2000	79.3838
567.1000	79.3601
567.0000	79.3257
566.9000	79.2866
566.8000	79.2389
566.7000	79.1907
566.6000	79.1266
566.5000	79.0644
566.4000	78.9948
566.3000	78.9217
566.2000	78.8439
566.1000	78.762
566.0000	78.6725
565.9000	78.5829
565.8000	78.4868
565.7000	78.3863
565.6000	78.284
565.5000	78.1831
565.4000	78.0778
565.3000	77.967
565.2000	77.8602
565.1000	77.7455
565.0000	77.6399
564.9000	77.527
564.8000	77.4125
564.7000	77.2955
564.6000	77.1852
564.5000	77.0732
564.4000	76.9626
564.3000	76.8519
564.2000	76.7454
564.1000	76.641
564.0000	76.5396
563.9000	76.4387
563.8000	76.3434
563.7000	76.2504
563.6000	76.1632
563.5000	76.0787
563.4000	75.9925
563.3000	75.9161
563.2000	75.851
563.1000	75.7913
563.0000	75.7261
562.9000	75.6697
562.8000	75.6239
562.7000	75.5826
562.6000	75.5445
562.5000	75.5166
562.4000	75.4953
562.3000	75.4779
562.2000	75.4663
562.1000	75.4669
562.0000	75.4623
561.9000	75.4713
561.8000	75.4919
561.7000	75.5147
561.6000	75.5387
561.5000	75.5734
561.4000	75.6168
561.3000	75.6643
561.2000	75.7151
561.1000	75.7726
561.0000	75.8422
560.9000	75.9076
560.8000	75.9802
560.7000	76.0579
560.6000	76.1419
560.5000	76.2254
560.4000	76.3218
560.3000	76.4179
560.2000	76.5122
560.1000	76.6138
560.0000	76.7199
559.9000	76.8227
559.8000	76.9304
559.7000	77.0416
559.6000	77.1533
559.5000	77.2659
559.4000	77.3759
559.3000	77.4922
559.2000	77.6023
559.1000	77.7175
559.0000	77.8282
558.9000	77.9402
558.8000	78.0497
558.7000	78.1584
558.6000	78.2677
558.5000	78.3652
558.4000	78.4626
558.3000	78.5581
558.2000	78.6479
558.1000	78.73
558.0000	78.8075
557.9000	78.8863
557.8000	78.9575
557.7000	79.0241
557.6000	79.0859
557.5000	79.1408
557.4000	79.1873
557.3000	79.2269
557.2000	79.2651
557.1000	79.2904
557.0000	79.3103
556.9000	79.3284
556.8000	79.3396
556.7000	79.342
556.6000	79.3407
556.5000	79.3331
556.4000	79.3164
556.3000	79.2904
556.2000	79.2609
556.1000	79.2212
556.0000	79.1781
555.9000	79.1292
555.8000	79.0758
555.7000	79.0167
555.6000	78.9481
555.5000	78.8837
555.4000	78.8074
555.3000	78.7262
555.2000	78.6394
555.1000	78.554
555.0000	78.4617
554.9000	78.3676
554.8000	78.273
554.7000	78.1749
554.6000	78.0682
554.5000	77.9642
554.4000	77.8595
554.3000	77.751
554.2000	77.6465
554.1000	77.5374
554.0000	77.4305
553.9000	77.3203
553.8000	77.2139
553.7000	77.112
553.6000	77.0101
553.5000	76.9075
553.4000	76.808
553.3000	76.71
553.2000	76.6128
553.1000	76.5222
553.0000	76.4394
552.9000	76.3604
552.8000	76.2803
552.7000	76.2017
552.6000	76.1315
552.5000	76.0692
552.4000	76.0128
552.3000	75.9586
552.2000	75.9089
552.1000	75.8659
552.0000	75.8308
551.9000	75.7986
551.8000	75.7781
551.7000	75.7611
551.6000	75.7522
551.5000	75.7505
551.4000	75.7511
551.3000	75.7608
551.2000	75.7746
551.1000	75.804
551.0000	75.8337
550.9000	75.8688
550.8000	75.9057
550.7000	75.955
550.6000	76.0109
550.5000	76.0705
550.4000	76.1329
550.3000	76.2054
550.2000	76.2735
550.1000	76.3544
550.0000	76.4372
549.9000	76.5222
549.8000	76.6163
549.7000	76.707
549.6000	76.805
549.5000	76.9
549.4000	76.9966
549.3000	77.0996
549.2000	77.2042
549.1000	77.3034
549.0000	77.4054
548.9000	77.5084
548.8000	77.6147
548.7000	77.7148
548.6000	77.819
548.5000	77.9176
548.4000	78.0145
548.3000	78.1087
548.2000	78.2017
548.1000	78.288
548.0000	78.3719
547.9000	78.4587
547.8000	78.5372
547.7000	78.6087
547.6000	78.6748
547.5000	78.7381
547.4000	78.8
547.3000	78.8548
547.2000	78.8996
547.1000	78.9414
547.0000	78.9784
546.9000	79.0081
546.8000	79.03
546.7000	79.0465
546.6000	79.0536
546.5000	79.0614
546.4000	79.0657
546.3000	79.0524
546.2000	79.0384
546.1000	79.0224
546.0000	79.0031
545.9000	78.9716
545.8000	78.9289
545.7000	78.8795
545.6000	78.8313
545.5000	78.772
545.4000	78.7088
545.3000	78.6415
545.2000	78.5695
545.1000	78.4936
545.0000	78.4137
544.9000	78.328
544.8000	78.2366
544.7000	78.1465
544.6000	78.053
544.5000	77.9501
544.4000	77.8457
544.3000	77.7473
544.2000	77.6474
544.1000	77.5473
544.0000	77.4409
543.9000	77.3389
543.8000	77.2307
543.7000	77.1286
543.6000	77.028
543.5000	76.924
543.4000	76.8232
543.3000	76.7232
543.2000	76.629
543.1000	76.536
543.0000	76.4446
542.9000	76.3588
542.8000	76.2725
542.7000	76.1915
542.6000	76.1167
542.5000	76.0446
542.4000	75.9783
542.3000	75.9198
542.2000	75.8689
542.1000	75.8179
542.0000	75.7724
541.9000	75.7398
541.8000	75.7064
541.7000	75.6821
541.6000	75.6582
541.5000	75.6427
541.4000	75.6367
541.3000	75.6367
541.2000	75.6443
541.1000	75.6554
541.0000	75.6718
540.9000	75.6991
540.8000	75.729
540.7000	75.7661
540.6000	75.8107
540.5000	75.8594
540.4000	75.9165
540.3000	75.9713
540.2000	76.0369
540.1000	76.1037
540.0000	76.1773
539.9000	76.254
539.8000	76.3322
539.7000	76.4157
539.6000	76.4992
539.5000	76.5876
539.4000	76.6767
539.3000	76.765
539.2000	76.8596
539.1000	76.9523
539.0000	77.0432
538.9000	77.1363
538.8000	77.2291
538.7000	77.3228
538.6000	77.4137
538.5000	77.5057
538.4000	77.5923
538.3000	77.6792
538.2000	77.7626
538.1000	77.8385
538.0000	77.918
537.9000	77.9929
537.8000	78.0646
537.7000	78.1317
537.6000	78.1907
537.5000	78.2461
537.4000	78.2979
537.3000	78.3421
537.2000	78.3823
537.1000	78.4156
537.0000	78.4418
536.9000	78.4637
536.8000	78.4815
536.7000	78.4866
536.6000	78.4909
536.5000	78.4921
536.4000	78.4832
536.3000	78.4667
536.2000	78.4456
536.1000	78.4165
536.0000	78.3839
535.9000	78.3385
535.8000	78.2946
535.7000	78.2466
535.6000	78.1898
535.5000	78.1283
535.4000	78.0628
535.3000	77.9919
535.2000	77.9182
535.1000	77.844
535.0000	77.761
534.9000	77.6748
534.8000	77.5846
534.7000	77.4952
534.6000	77.4031
534.5000	77.3058
534.4000	77.2051
534.3000	77.1119
534.2000	77.0101
534.1000	76.9077
534.0000	76.8027
533.9000	76.7044
533.8000	76.6059
533.7000	76.5096
533.6000	76.4109
533.5000	76.3163
533.4000	76.2235
533.3000	76.1345
533.2000	76.045
533.1000	75.9621
533.0000	75.8787
532.9000	75.8073
532.8000	75.7382
532.7000	75.6683
532.6000	75.6106
532.5000	75.5545
532.4000	75.5076
532.3000	75.4615
532.2000	75.4237
532.1000	75.3887
532.0000	75.3618
531.9000	75.3379
531.8000	75.3231
531.7000	75.3142
531.6000	75.3164
531.5000	75.3178
531.4000	75.3255
531.3000	75.3385
531.2000	75.3604
531.1000	75.3893
531.0000	75.4186
530.9000	75.4601
530.8000	75.5029
530.7000	75.5497
530.6000	75.605
530.5000	75.6647
530.4000	75.7284
530.3000	75.7975
530.2000	75.8667
530.1000	75.9393
530.0000	76.0123
529.9000	76.0945
529.8000	76.18
529.7000	76.2648
529.6000	76.3468
529.5000	76.4304
529.4000	76.517
529.3000	76.6032
529.2000	76.6887
529.1000	76.7707
529.0000	76.8517
528.9000	76.9335
528.8000	77.0129
528.7000	77.0871
528.6000	77.1619
528.5000	77.2328
528.4000	77.3065
528.3000	77.3677
528.2000	77.4283
528.1000	77.485
528.0000	77.5403
527.9000	77.591
527.8000	77.6322
527.7000	77.6657
527.6000	77.6938
527.5000	77.7241
527.4000	77.7434
527.3000	77.7562
527.2000	77.7677
527.1000	77.7708
527.0000	77.7686
526.9000	77.7596
526.8000	77.7371
526.7000	77.7145
526.6000	77.6839
526.5000	77.6445
526.4000	77.602
526.3000	77.5564
526.2000	77.5055
526.1000	77.4487
526.0000	77.3907
525.9000	77.323
525.8000	77.255
525.7000	77.1783
525.6000	77.096
525.5000	77.0101
525.4000	76.9255
525.3000	76.8367
525.2000	76.745
525.1000	76.6502
525.0000	76.5508
524.9000	76.4598
524.8000	76.3635
524.7000	76.2596
524.6000	76.162
524.5000	76.0642
524.4000	75.9646
524.3000	75.8674
524.2000	75.7683
524.1000	75.6711
524.0000	75.5797
523.9000	75.4974
523.8000	75.4082
523.7000	75.3259
523.6000	75.2523
523.5000	75.1781
523.4000	75.1114
523.3000	75.0407
523.2000	74.978
523.1000	74.9258
523.0000	74.8744
522.9000	74.8277
522.8000	74.7883
522.7000	74.757
522.6000	74.7296
522.5000	74.711
522.4000	74.6921
522.3000	74.6787
522.2000	74.6797
522.1000	74.6803
522.0000	74.6854
521.9000	74.6994
521.8000	74.7198
521.7000	74.7463
521.6000	74.7761
521.5000	74.815
521.4000	74.8566
521.3000	74.9019
521.2000	74.9535
521.1000	75.0036
521.0000	75.0647
520.9000	75.1298
520.8000	75.1967
520.7000	75.2654
520.6000	75.334
520.5000	75.4125
520.4000	75.4893
520.3000	75.5633
520.2000	75.6412
520.1000	75.7202
520.0000	75.9069
519.9000	75.983
519.8000	76.0608
519.7000	76.1383
519.6000	76.2101
519.5000	76.2796
519.4000	76.3455
519.3000	76.4051
519.2000	76.4689
519.1000	76.5241
519.0000	76.583
518.9000	76.6289
518.8000	76.6741
518.7000	76.7167
518.6000	76.7489
518.5000	76.779
518.4000	76.8005
518.3000	76.8175
518.2000	76.8345
518.1000	76.8413
518.0000	76.8428
517.9000	76.838
517.8000	76.8284
517.7000	76.8139
517.6000	76.7863
517.5000	76.7565
517.4000	76.7181
517.3000	76.681
517.2000	76.6321
517.1000	76.5777
517.0000	76.5238
516.9000	76.4609
516.8000	76.3967
516.7000	76.3242
516.6000	76.2391
516.5000	76.1588
516.4000	76.077
516.3000	75.9881
516.2000	75.896
516.1000	75.8022
516.0000	75.7084
515.9000	75.6165
515.8000	75.5225
515.7000	75.4231
515.6000	75.3271
515.5000	75.2324
515.4000	75.139
515.3000	75.0476
515.2000	74.9562
515.1000	74.8705
515.0000	74.7855
514.9000	74.697
514.8000	74.6111
514.7000	74.535
514.6000	74.4637
514.5000	74.3943
514.4000	74.3269
514.3000	74.2592
514.2000	74.1998
514.1000	74.148
514.0000	74.0981
513.9000	74.0529
513.8000	74.0127
513.7000	73.9784
513.6000	73.9484
513.5000	73.9282
513.4000	73.9199
513.3000	73.915
513.2000	73.9138
513.1000	73.9171
513.0000	73.9248
512.9000	73.939
512.8000	73.9644
512.7000	73.9962
512.6000	74.0305
512.5000	74.0711
512.4000	74.1192
512.3000	74.1706
512.2000	74.2205
512.1000	74.2761
512.0000	74.3385
511.9000	74.3961
511.8000	74.4594
511.7000	74.5237
511.6000	74.5951
511.5000	74.6659
511.4000	74.7392
511.3000	74.8117
511.2000	74.8861
511.1000	74.9589
511.0000	75.0299
510.9000	75.0966
510.8000	75.1639
510.7000	75.228
510.6000	75.2973
510.5000	75.362
510.4000	75.4163
510.3000	75.474
510.2000	75.5202
510.1000	75.5708
510.0000	75.6145
509.9000	75.6464
509.8000	75.6781
509.7000	75.7051
509.6000	75.7254
509.5000	75.7424
509.4000	75.7499
509.3000	75.7545
509.2000	75.7511
509.1000	75.7431
509.0000	75.7251
508.9000	75.7035
508.8000	75.6776
508.7000	75.6435
508.6000	75.6065
508.5000	75.5617
508.4000	75.5127
508.3000	75.4642
508.2000	75.405
508.1000	75.3392
508.0000	75.2658
507.9000	75.1917
507.8000	75.1179
507.7000	75.0361
507.6000	74.9521
507.5000	74.8648
507.4000	74.7769
507.3000	74.6842
507.2000	74.5955
507.1000	74.5018
507.0000	74.4124
506.9000	74.3203
506.8000	74.2253
506.7000	74.131
506.6000	74.0425
506.5000	73.9541
506.4000	73.8702
506.3000	73.7866
506.2000	73.7074
506.1000	73.6303
506.0000	73.5554
505.9000	73.4871
505.8000	73.4245
505.7000	73.3675
505.6000	73.3125
505.5000	73.2626
505.4000	73.2153
505.3000	73.1736
505.2000	73.1425
505.1000	73.1161
505.0000	73.0943
504.9000	73.0761
504.8000	73.0644
504.7000	73.0613
504.6000	73.0628
504.5000	73.069
504.4000	73.0822
504.3000	73.1034
504.2000	73.126
504.1000	73.1529
504.0000	73.1875
503.9000	73.2282
503.8000	73.2757
503.7000	73.3254
503.6000	73.3763
503.5000	73.4305
503.4000	73.4821
503.3000	73.5488
503.2000	73.6123
503.1000	73.6704
503.0000	73.7347
502.9000	73.8014
502.8000	73.8691
502.7000	73.933
502.6000	73.9982
502.5000	74.0654
502.4000	74.1274
502.3000	74.1897
502.2000	74.2454
502.1000	74.2992
502.0000	74.3536
501.9000	74.4039
501.8000	74.4499
501.7000	74.4899
501.6000	74.5268
501.5000	74.5652
501.4000	74.5892
501.3000	74.6152
501.2000	74.6325
501.1000	74.6443
501.0000	74.6523
500.9000	74.6478
500.8000	74.6372
500.7000	74.6237
500.6000	74.6063
500.5000	74.5802
500.4000	74.549
500.3000	74.5136
500.2000	74.4753
500.1000	74.4276
500.0000	74.3748
499.9000	74.3158
499.8000	74.26
499.7000	74.1923
499.6000	74.1217
499.5000	74.0463
499.4000	73.9674
499.3000	73.8902
499.2000	73.8136
499.1000	73.7312
499.0000	73.6479
498.9000	73.5643
498.8000	73.478
498.7000	73.39
498.6000	73.303
498.5000	73.2156
498.4000	73.1308
498.3000	73.0462
498.2000	72.9654
498.1000	72.8923
498.0000	72.8196
497.9000	72.7493
497.8000	72.6833
497.7000	72.6201
497.6000	72.5604
497.5000	72.5044
497.4000	72.4492
497.3000	72.4061
497.2000	72.3638
497.1000	72.3314
497.0000	72.2992
496.9000	72.2742
496.8000	72.2537
496.7000	72.2394
496.6000	72.2257
496.5000	72.216
496.4000	72.2142
496.3000	72.2249
496.2000	72.2342
496.1000	72.2521
496.0000	72.2719
495.9000	72.2988
495.8000	72.3308
495.7000	72.3629
495.6000	72.4018
495.5000	72.4425
495.4000	72.4923
495.3000	72.5414
495.2000	72.5957
495.1000	72.647
495.0000	72.7043
494.9000	72.762
494.8000	72.8192
494.7000	72.8714
494.6000	72.9295
494.5000	72.9863
494.4000	73.0443
494.3000	73.0967
494.2000	73.1521
494.1000	73.2066
494.0000	73.2527
493.9000	73.2996
493.8000	73.3409
493.7000	73.3806
493.6000	73.4167
493.5000	73.4548
493.4000	73.4812
493.3000	73.5025
493.2000	73.523
493.1000	73.5424
493.0000	73.549
492.9000	73.5467
492.8000	73.5444
492.7000	73.5391
492.6000	73.5259
492.5000	73.5003
492.4000	73.4754
492.3000	73.4464
492.2000	73.4092
492.1000	73.368
492.0000	73.3227
491.9000	73.2693
491.8000	73.2168
491.7000	73.1614
491.6000	73.0961
491.5000	73.0292
491.4000	72.9616
491.3000	72.8947
491.2000	72.8204
491.1000	72.7443
491.0000	72.669
490.9000	72.5955
490.8000	72.5155
490.7000	72.4377
490.6000	72.3648
490.5000	72.2889
490.4000	72.2125
490.3000	72.1399
490.2000	72.068
490.1000	72.0014
490.0000	71.9361
489.9000	71.8723
489.8000	71.814
489.7000	71.7597
489.6000	71.7087
489.5000	71.6615
489.4000	71.6152
489.3000	71.5807
489.2000	71.5513
489.1000	71.5216
489.0000	71.4947
488.9000	71.478
488.8000	71.4655
488.7000	71.4619
488.6000	71.4604
488.5000	71.4567
488.4000	71.4694
488.3000	71.4849
488.2000	71.5054
488.1000	71.5265
488.0000	71.5503
487.9000	71.5837
487.8000	71.6176
487.7000	71.6517
487.6000	71.6923
487.5000	71.7337
487.4000	71.7802
487.3000	71.8257
487.2000	71.8737
487.1000	71.92
487.0000	71.9677
486.9000	72.0217
486.8000	72.0684
486.7000	72.116
486.6000	72.1639
486.5000	72.2099
486.4000	72.2599
486.3000	72.301
486.2000	72.3462
486.1000	72.3844
486.0000	72.4167
485.9000	72.4499
485.8000	72.4772
485.7000	72.5059
485.6000	72.5263
485.5000	72.5415
485.4000	72.5548
485.3000	72.5609
485.2000	72.5655
485.1000	72.5628
485.0000	72.5556
484.9000	72.546
484.8000	72.5272
484.7000	72.5054
484.6000	72.4785
484.5000	72.4495
484.4000	72.4188
484.3000	72.3803
484.2000	72.3374
484.1000	72.2855
484.0000	72.2377
483.9000	72.1856
483.8000	72.1282
483.7000	72.0699
483.6000	72.0082
483.5000	71.9433
483.4000	71.8776
483.3000	71.8117
483.2000	71.7452
483.1000	71.6805
483.0000	71.6135
482.9000	71.5465
482.8000	71.4806
482.7000	71.4169
482.6000	71.3568
482.5000	71.3002
482.4000	71.2414
482.3000	71.1861
482.2000	71.1377
482.1000	71.0937
482.0000	71.0482
481.9000	71.0099
481.8000	70.9754
481.7000	70.9453
481.6000	70.9176
481.5000	70.8943
481.4000	70.8725
481.3000	70.8565
481.2000	70.8481
481.1000	70.8451
481.0000	70.8446
480.9000	70.8486
480.8000	70.8578
480.7000	70.8704
480.6000	70.8886
480.5000	70.909
480.4000	70.9351
480.3000	70.9617
480.2000	70.9919
480.1000	71.0196
480.0000	71.0548
479.9000	71.0907
479.8000	71.1338
479.7000	71.1797
479.6000	71.2173
479.5000	71.2595
479.4000	71.3025
479.3000	71.344
479.2000	71.3824
479.1000	71.4247
479.0000	71.4651
478.9000	71.5041
478.8000	71.5385
478.7000	71.5739
478.6000	71.6047
478.5000	71.6443
478.4000	71.6706
478.3000	71.6959
478.2000	71.7154
478.1000	71.7301
478.0000	71.7499
477.9000	71.7586
477.8000	71.7645
477.7000	71.7711
477.6000	71.7745
477.5000	71.7676
477.4000	71.7553
477.3000	71.7366
477.2000	71.7223
477.1000	71.6988
477.0000	71.672
476.9000	71.6346
476.8000	71.6033
476.7000	71.5656
476.6000	71.5266
476.5000	71.4836
476.4000	71.4357
476.3000	71.3866
476.2000	71.3376
476.1000	71.2821
476.0000	71.2311
475.9000	71.1779
475.8000	71.1224
475.7000	71.0677
475.6000	71.0081
475.5000	70.9544
475.4000	70.9024
475.3000	70.8533
475.2000	70.8025
475.1000	70.7504
475.0000	70.7072
474.9000	70.6611
474.8000	70.6209
474.7000	70.5862
474.6000	70.5475
474.5000	70.5159
474.4000	70.4854
474.3000	70.4583
474.2000	70.4387
474.1000	70.4274
474.0000	70.421
473.9000	70.4144
473.8000	70.4141
473.7000	70.4147
473.6000	70.4188
473.5000	70.432
473.4000	70.4418
473.3000	70.4643
473.2000	70.4818
473.1000	70.5037
473.0000	70.5328
472.9000	70.5631
472.8000	70.5975
472.7000	70.6336
472.6000	70.6709
472.5000	70.7056
472.4000	70.7417
472.3000	70.7787
472.2000	70.8123
472.1000	70.8492
472.0000	70.8894
471.9000	70.9248
471.8000	70.9621
471.7000	70.9909
471.6000	71.0233
471.5000	71.0551
471.4000	71.0837
471.3000	71.1097
471.2000	71.1281
471.1000	71.1502
471.0000	71.1668
470.9000	71.1807
470.8000	71.1918
470.7000	71.1988
470.6000	71.202
470.5000	71.199
470.4000	71.1948
470.3000	71.1885
470.2000	71.1727
470.1000	71.1586
470.0000	71.1409
469.9000	71.1172
469.8000	71.0876
469.7000	71.058
469.6000	71.0287
469.5000	70.9941
469.4000	70.9593
469.3000	70.9179
469.2000	70.8762
469.1000	70.8334
469.0000	70.7945
468.9000	70.7533
468.8000	70.7064
468.7000	70.6605
468.6000	70.6195
468.5000	70.5756
468.4000	70.5339
468.3000	70.4941
468.2000	70.4581
468.1000	70.4263
468.0000	70.3885
467.9000	70.3558
467.8000	70.3231
467.7000	70.3029
467.6000	70.279
467.5000	70.2577
467.4000	70.2368
467.3000	70.2245
467.2000	70.214
467.1000	70.206
467.0000	70.2032
466.9000	70.2008
466.8000	70.2035
466.7000	70.2054
466.6000	70.2136
466.5000	70.2184
466.4000	70.237
466.3000	70.2539
466.2000	70.2738
466.1000	70.2894
466.0000	70.3117
465.9000	70.3373
465.8000	70.3646
465.7000	70.3895
465.6000	70.4235
465.5000	70.4545
465.4000	70.4834
465.3000	70.5175
465.2000	70.5484
465.1000	70.5779
465.0000	70.6074
464.9000	70.6377
464.8000	70.6633
464.7000	70.6866
464.6000	70.7101
464.5000	70.7312
464.4000	70.7514
464.3000	70.7677
464.2000	70.7817
464.1000	70.7955
464.0000	70.8012
463.9000	70.8074
463.8000	70.8108
463.7000	70.8091
463.6000	70.8079
463.5000	70.8056
463.4000	70.7993
463.3000	70.7908
463.2000	70.7744
463.1000	70.7612
463.0000	70.7427
462.9000	70.7253
462.8000	70.7051
462.7000	70.6841
462.6000	70.6576
462.5000	70.6311
462.4000	70.6001
462.3000	70.5714
462.2000	70.5426
462.1000	70.5148
462.0000	70.4853
461.9000	70.4519
461.8000	70.4211
461.7000	70.3916
461.6000	70.3672
461.5000	70.3409
461.4000	70.313
461.3000	70.2846
461.2000	70.2607
461.1000	70.2388
461.0000	70.2221
460.9000	70.2013
460.8000	70.1899
460.7000	70.1769
460.6000	70.1641
460.5000	70.1548
460.4000	70.1457
460.3000	70.1455
460.2000	70.1448
460.1000	70.1443
460.0000	70.1468
459.9000	70.1514
459.8000	70.1593
459.7000	70.171
459.6000	70.1829
459.5000	70.1978
459.4000	70.2137
459.3000	70.2369
459.2000	70.2541
459.1000	70.2763
459.0000	70.3016
458.9000	70.3223
458.8000	70.3462
458.7000	70.3691
458.6000	70.3918
458.5000	70.4166
458.4000	70.4418
458.3000	70.4652
458.2000	70.4888
458.1000	70.5098
458.0000	70.5295
457.9000	70.5488
457.8000	70.5669
457.7000	70.5799
457.6000	70.5937
457.5000	70.6047
457.4000	70.6115
457.3000	70.6241
457.2000	70.6317
457.1000	70.6393
457.0000	70.6404
456.9000	70.6386
456.8000	70.6326
456.7000	70.6277
456.6000	70.624
456.5000	70.6153
456.4000	70.6068
456.3000	70.5935
456.2000	70.5809
456.1000	70.5647
456.0000	70.55
455.9000	70.5343
455.8000	70.5187
455.7000	70.4971
455.6000	70.4782
455.5000	70.4605
455.4000	70.4445
455.3000	70.4289
455.2000	70.4135
455.1000	70.3947
455.0000	70.3795
454.9000	70.3664
454.8000	70.3519
454.7000	70.3374
454.6000	70.3258
454.5000	70.3243
454.4000	70.318
454.3000	70.3123
454.2000	70.3104
454.1000	70.312
454.0000	70.3073
453.9000	70.308
453.8000	70.3142
453.7000	70.3165
453.6000	70.3241
453.5000	70.3365
453.4000	70.348
453.3000	70.3627
453.2000	70.3783
453.1000	70.3958
453.0000	70.4103
452.9000	70.4221
452.8000	70.4417
452.7000	70.4629
452.6000	70.4757
452.5000	70.4941
452.4000	70.5152
452.3000	70.5332
452.2000	70.5481
452.1000	70.5726
452.0000	70.5904
451.9000	70.6093
451.8000	70.6262
451.7000	70.6431
451.6000	70.6528
451.5000	70.6663
451.4000	70.6763
451.3000	70.6891
451.2000	70.6983
451.1000	70.7026
451.0000	70.7131
450.9000	70.7193
450.8000	70.7258
450.7000	70.7298
450.6000	70.734
450.5000	70.7322
450.4000	70.7327
450.3000	70.7293
450.2000	70.7225
450.1000	70.719
450.0000	70.7182
449.9000	70.7139
449.8000	70.7151
449.7000	70.7073
449.6000	70.7035
449.5000	70.7027
449.4000	70.7018
449.3000	70.6986
449.2000	70.6945
449.1000	70.69
449.0000	70.6864
448.9000	70.6837
448.8000	70.6822
448.7000	70.6829
448.6000	70.6867
448.5000	70.6865
448.4000	70.6919
448.3000	70.702
448.2000	70.7078
448.1000	70.7163
448.0000	70.7209
447.9000	70.7251
447.8000	70.7329
447.7000	70.7432
447.6000	70.7579
447.5000	70.7732
447.4000	70.7927
447.3000	70.8085
447.2000	70.8219
447.1000	70.8361
447.0000	70.8559
446.9000	70.8711
446.8000	70.8881
446.7000	70.9022
446.6000	70.9196
446.5000	70.937
446.4000	70.9551
446.3000	70.9753
446.2000	70.9906
446.1000	71.0085
446.0000	71.0245
445.9000	71.0395
445.8000	71.0493
445.7000	71.0591
445.6000	71.0721
445.5000	71.0823
445.4000	71.087
445.3000	71.0954
445.2000	71.1049
445.1000	71.1151
445.0000	71.1169
444.9000	71.1215
444.8000	71.1283
444.7000	71.1318
444.6000	71.1343
444.5000	71.1383
444.4000	71.1371
444.3000	71.1353
444.2000	71.1334
444.1000	71.1352
444.0000	71.138
443.9000	71.1407
443.8000	71.1455
443.7000	71.1512
443.6000	71.1514
443.5000	71.151
443.4000	71.1571
443.3000	71.1631
443.2000	71.164
443.1000	71.1712
443.0000	71.1785
442.9000	71.1824
442.8000	71.1924
442.7000	71.2003
442.6000	71.2164
442.5000	71.2312
442.4000	71.2429
442.3000	71.2572
442.2000	71.267
442.1000	71.2822
442.0000	71.2954
441.9000	71.3129
441.8000	71.3325
441.7000	71.3514
441.6000	71.3767
441.5000	71.3938
441.4000	71.4171
441.3000	71.4363
441.2000	71.4553
441.1000	71.4821
441.0000	71.5016
440.9000	71.5202
440.8000	71.5416
440.7000	71.5636
440.6000	71.5855
440.5000	71.602
440.4000	71.6208
440.3000	71.6365
440.2000	71.6517
440.1000	71.6645
440.0000	71.6697
439.9000	71.6804
439.8000	71.6895
439.7000	71.6996
439.6000	71.7071
439.5000	71.711
439.4000	71.7132
439.3000	71.7189
439.2000	71.7231
439.1000	71.7232
439.0000	71.7253
438.9000	71.7281
438.8000	71.7309
438.7000	71.7321
438.6000	71.7308
438.5000	71.7293
438.4000	71.7329
438.3000	71.7327
438.2000	71.7329
438.1000	71.7395
438.0000	71.7427
437.9000	71.7492
437.8000	71.756
437.7000	71.7651
437.6000	71.7728
437.5000	71.7822
437.4000	71.7925
437.3000	71.8023
437.2000	71.8132
437.1000	71.8302
437.0000	71.8474
436.9000	71.8702
436.8000	71.8896
436.7000	71.9131
436.6000	71.9354
436.5000	71.9551
436.4000	71.9824
436.3000	72.0033
436.2000	72.0299
436.1000	72.0549
436.0000	72.0799
435.9000	72.1066
435.8000	72.1329
435.7000	72.1643
435.6000	72.1922
435.5000	72.2159
435.4000	72.2447
435.3000	72.2674
435.2000	72.2889
435.1000	72.3122
435.0000	72.3299
434.9000	72.3473
434.8000	72.3637
434.7000	72.3814
434.6000	72.3891
434.5000	72.3976
434.4000	72.4121
434.3000	72.4213
434.2000	72.4267
434.1000	72.4221
434.0000	72.4283
433.9000	72.434
433.8000	72.4321
433.7000	72.425
433.6000	72.4223
433.5000	72.4181
433.4000	72.4208
433.3000	72.4173
433.2000	72.4163
433.1000	72.4148
433.0000	72.4199
432.9000	72.4217
432.8000	72.4157
432.7000	72.4126
432.6000	72.4173
432.5000	72.4291
432.4000	72.4334
432.3000	72.4345
432.2000	72.4419
432.1000	72.4589
432.0000	72.4735
431.9000	72.4879
431.8000	72.5023
431.7000	72.5213
431.6000	72.5389
431.5000	72.5548
431.4000	72.5733
431.3000	72.5927
431.2000	72.6201
431.1000	72.6446
431.0000	72.6664
430.9000	72.6883
430.8000	72.7132
430.7000	72.7396
430.6000	72.7656
430.5000	72.791
430.4000	72.8184
430.3000	72.8402
430.2000	72.8616
430.1000	72.8882
430.0000	72.9043
429.9000	72.9238
429.8000	72.9451
429.7000	72.9614
429.6000	72.9707
429.5000	72.9807
429.4000	72.9902
429.3000	72.9986
429.2000	73.0018
429.1000	73.0032
429.0000	72.997
428.9000	72.9924
428.8000	72.9921
428.7000	72.992
428.6000	72.9867
428.5000	72.9746
428.4000	72.964
428.3000	72.9559
428.2000	72.9434
428.1000	72.9344
428.0000	72.9267
427.9000	72.9232
427.8000	72.9181
427.7000	72.908
427.6000	72.8994
427.5000	72.8945
427.4000	72.8929
427.3000	72.8841
427.2000	72.8752
427.1000	72.8683
427.0000	72.8669
426.9000	72.8633
426.8000	72.8714
426.7000	72.8785
426.6000	72.8819
426.5000	72.887
426.4000	72.894
426.3000	72.8998
426.2000	72.9052
426.1000	72.9199
426.0000	72.9345
425.9000	72.9485
425.8000	72.9665
425.7000	72.9878
425.6000	73.0035
425.5000	73.0242
425.4000	73.0418
425.3000	73.0634
425.2000	73.076
425.1000	73.0895
425.0000	73.1039
424.9000	73.1213
424.8000	73.1352
424.7000	73.149
424.6000	73.1625
424.5000	73.1689
424.4000	73.1789
424.3000	73.1821
424.2000	73.1846
424.1000	73.1879
424.0000	73.1893
423.9000	73.1859
423.8000	73.1844
423.7000	73.1812
423.6000	73.1792
423.5000	73.1744
423.4000	73.1709
423.3000	73.1621
423.2000	73.1538
423.1000	73.149
423.0000	73.137
422.9000	73.1319
422.8000	73.1221
422.7000	73.1209
422.6000	73.1167
422.5000	73.1149
422.4000	73.1111
422.3000	73.1141
422.2000	73.113
422.1000	73.1187
422.0000	73.1234
421.9000	73.1341
421.8000	73.1475
421.7000	73.1626
421.6000	73.1787
421.5000	73.1959
421.4000	73.2168
421.3000	73.2333
421.2000	73.2548
421.1000	73.2769
421.0000	73.299
420.9000	73.3191
420.8000	73.3457
420.7000	73.3655
420.6000	73.3889
420.5000	73.4102
420.4000	73.4324
420.3000	73.449
420.2000	73.4622
420.1000	73.4794
420.0000	73.8542
419.9000	73.8663
419.8000	73.882
419.7000	73.892
419.6000	73.9018
419.5000	73.9092
419.4000	73.913
419.3000	73.9214
419.2000	73.9239
419.1000	73.9265
419.0000	73.9244
418.9000	73.9273
418.8000	73.9212
418.7000	73.9123
418.6000	73.9051
418.5000	73.894
418.4000	73.8788
418.3000	73.8684
418.2000	73.854
418.1000	73.8424
418.0000	73.8296
417.9000	73.8182
417.8000	73.8085
417.7000	73.7929
417.6000	73.778
417.5000	73.77
417.4000	73.7612
417.3000	73.7512
417.2000	73.7496
417.1000	73.7448
417.0000	73.7382
416.9000	73.735
416.8000	73.7425
416.7000	73.742
416.6000	73.7425
416.5000	73.7484
416.4000	73.7543
416.3000	73.7612
416.2000	73.7696
416.1000	73.7763
416.0000	73.7851
415.9000	73.7885
415.8000	73.7922
415.7000	73.7991
415.6000	73.8044
415.5000	73.8077
415.4000	73.8134
415.3000	73.8187
415.2000	73.8148
415.1000	73.8181
415.0000	73.8186
414.9000	73.8111
414.8000	73.8051
414.7000	73.7931
414.6000	73.787
414.5000	73.7829
414.4000	73.7761
414.3000	73.7651
414.2000	73.7605
414.1000	73.7511
414.0000	73.7404
413.9000	73.7293
413.8000	73.7107
413.7000	73.6934
413.6000	73.6839
413.5000	73.6681
413.4000	73.6538
413.3000	73.644
413.2000	73.6335
413.1000	73.6291
413.0000	73.6151
412.9000	73.6048
412.8000	73.5944
412.7000	73.5928
412.6000	73.5793
412.5000	73.5717
412.4000	73.5644
412.3000	73.564
412.2000	73.566
412.1000	73.5722
412.0000	73.566
411.9000	73.5693
411.8000	73.5748
411.7000	73.5809
411.6000	73.5838
411.5000	73.5886
411.4000	73.595
411.3000	73.595
411.2000	73.5978
411.1000	73.6067
411.0000	73.6127
410.9000	73.6156
410.8000	73.6138
410.7000	73.6129
410.6000	73.6138
410.5000	73.6134
410.4000	73.6153
410.3000	73.6127
410.2000	73.612
410.1000	73.604
410.0000	73.5996
409.9000	73.5882
409.8000	73.5754
409.7000	73.5678
409.6000	73.5594
409.5000	73.5413
409.4000	73.5287
409.3000	73.5203
409.2000	73.5162
409.1000	73.5028
409.0000	73.4951
408.9000	73.4818
408.8000	73.4762
408.7000	73.4673
408.6000	73.4562
408.5000	73.446
408.4000	73.4407
408.3000	73.4384
408.2000	73.4351
408.1000	73.4316
408.0000	73.4283
407.9000	73.4282
407.8000	73.4299
407.7000	73.4264
407.6000	73.4264
407.5000	73.4294
407.4000	73.4256
407.3000	73.428
407.2000	73.43
407.1000	73.425
407.0000	73.4219
406.9000	73.4242
406.8000	73.4203
406.7000	73.4141
406.6000	73.4112
406.5000	73.4083
406.4000	73.3991
406.3000	73.3878
406.2000	73.3752
406.1000	73.3677
406.0000	73.3574
405.9000	73.3489
405.8000	73.3369
405.7000	73.3198
405.6000	73.2963
405.5000	73.2815
405.4000	73.2578
405.3000	73.2444
405.2000	73.2252
405.1000	73.212
405.0000	73.1946
404.9000	73.1804
404.8000	73.1716
404.7000	73.1581
404.6000	73.1478
404.5000	73.1318
404.4000	73.1147
404.3000	73.0993
404.2000	73.0861
404.1000	73.0761
404.0000	73.0664
403.9000	73.0588
403.8000	73.0589
403.7000	73.0442
403.6000	73.0344
403.5000	73.0198
403.4000	73.0083
403.3000	72.9919
403.2000	72.9764
403.1000	72.9642
403.0000	72.9498
402.9000	72.9313
402.8000	72.9159
402.7000	72.8952
402.6000	72.8758
402.5000	72.8549
402.4000	72.8355
402.3000	72.8099
402.2000	72.7814
402.1000	72.7584
402.0000	72.7335
401.9000	72.7086
401.8000	72.6803
401.7000	72.6517
401.6000	72.6189
401.5000	72.5914
401.4000	72.5604
401.3000	72.5354
401.2000	72.5055
401.1000	72.4714
401.0000	72.4438
400.9000	72.416
400.8000	72.3858
400.7000	72.3528
400.6000	72.3206
400.5000	72.2901
400.4000	72.2605
400.3000	72.2281
400.2000	72.1944
400.1000	72.1648
400.0000	72.1351
399.9000	72.1025
399.8000	72.0699
399.7000	72.0376
399.6000	72.0056
399.5000	71.977
399.4000	71.9427
399.3000	71.9052
399.2000	71.8743
399.1000	71.8432
399.0000	71.82
398.9000	71.7824
398.8000	71.7443
398.7000	71.7106
398.6000	71.6703
398.5000	71.6296
398.4000	71.5931
398.3000	71.5513
398.2000	71.5116
398.1000	71.4688
398.0000	71.4251
397.9000	71.3863
397.8000	71.3468
397.7000	71.3059
397.6000	71.2572
397.5000	71.2178
397.4000	71.1705
397.3000	71.1309
397.2000	71.0934
397.1000	71.0517
397.0000	71.0185
396.9000	70.9844
396.8000	70.9431
396.7000	70.9072
396.6000	70.8685
396.5000	70.8265
396.4000	70.7883
396.3000	70.7438
396.2000	70.6989
396.1000	70.6604
396.0000	70.6252
395.9000	70.5807
395.8000	70.5308
395.7000	70.4805
395.6000	70.4365
395.5000	70.3902
395.4000	70.3427
395.3000	70.2931
395.2000	70.246
395.1000	70.1962
395.0000	70.1464
394.9000	70.0975
394.8000	70.047
394.7000	69.9972
394.6000	69.9474
394.5000	69.8936
394.4000	69.8419
394.3000	69.796
394.2000	69.7514
394.1000	69.7083
394.0000	69.6619
393.9000	69.6148
393.8000	69.5741
393.7000	69.5277
393.6000	69.4813
393.5000	69.4379
393.4000	69.3969
393.3000	69.3588
393.2000	69.3209
393.1000	69.2851
393.0000	69.2472
392.9000	69.2071
392.8000	69.1655
392.7000	69.1168
392.6000	69.0733
392.5000	69.0286
392.4000	68.9819
392.3000	68.9346
392.2000	68.8856
392.1000	68.8447
392.0000	68.8036
391.9000	68.7532
391.8000	68.7018
391.7000	68.6504
391.6000	68.598
391.5000	68.5451
391.4000	68.4913
391.3000	68.4377
391.2000	68.389
391.1000	68.3386
391.0000	68.2864
390.9000	68.2373
390.8000	68.1822
390.7000	68.1329
390.6000	68.0788
390.5000	68.0161
390.4000	67.9619
390.3000	67.9148
390.2000	67.8647
390.1000	67.8127
390.0000	67.7563
389.9000	67.7078
389.8000	67.655
389.7000	67.61
389.6000	67.5559
389.5000	67.5086
389.4000	67.4576
389.3000	67.4033
389.2000	67.354
389.1000	67.3021
389.0000	67.2485
388.9000	67.1992
388.8000	67.1391
388.7000	67.0804
388.6000	67.0157
388.5000	66.9575
388.4000	66.8994
388.3000	66.8335
388.2000	66.776
388.1000	66.7108
388.0000	66.6435
387.9000	66.5778
387.8000	66.5146
387.7000	66.4529
387.6000	66.388
387.5000	66.3235
387.4000	66.2666
387.3000	66.2038
387.2000	66.1453
387.1000	66.0839
387.0000	66.0277
386.9000	65.9663
386.8000	65.9088
386.7000	65.8497
386.6000	65.7849
386.5000	65.7229
386.4000	65.6704
386.3000	65.6105
386.2000	65.5489
386.1000	65.4856
386.0000	65.4193
385.9000	65.3518
385.8000	65.2812
385.7000	65.217
385.6000	65.1488
385.5000	65.0803
385.4000	65.0127
385.3000	64.9479
385.2000	64.8743
385.1000	64.8039
385.0000	64.7346
384.9000	64.662
384.8000	64.584
384.7000	64.511
384.6000	64.4427
384.5000	64.3725
384.4000	64.3023
384.3000	64.236
384.2000	64.1636
384.1000	64.0939
384.0000	64.0253
383.9000	63.9544
383.8000	63.8789
383.7000	63.8013
383.6000	63.7302
383.5000	63.6567
383.4000	63.5798
383.3000	63.5065
383.2000	63.4277
383.1000	63.3461
383.0000	63.2646
382.9000	63.1824
382.8000	63.1001
382.7000	63.0139
382.6000	62.9301
382.5000	62.8435
382.4000	62.7579
382.3000	62.6718
382.2000	62.5891
382.1000	62.5028
382.0000	62.4185
381.9000	62.3313
381.8000	62.2461
381.7000	62.1535
381.6000	62.0691
381.5000	61.9836
381.4000	61.8894
381.3000	61.7957
381.2000	61.7028
381.1000	61.6094
381.0000	61.5162
380.9000	61.4237
380.8000	61.3296
380.7000	61.2311
380.6000	61.1328
380.5000	61.0355
380.4000	60.9283
380.3000	60.8231
380.2000	60.719
380.1000	60.6206
380.0000	60.508
379.9000	60.4032
379.8000	60.2984
379.7000	60.1939
379.6000	60.0877
379.5000	59.9816
379.4000	59.8751
379.3000	59.7622
379.2000	59.6448
379.1000	59.5278
379.0000	59.4133
378.9000	59.2933
378.8000	59.1771
378.7000	59.0619
378.6000	58.9399
378.5000	58.8166
378.4000	58.6951
378.3000	58.5681
378.2000	58.4371
378.1000	58.3086
378.0000	58.1753
377.9000	58.0385
377.8000	57.8973
377.7000	57.7585
377.6000	57.6202
377.5000	57.4837
377.4000	57.3394
377.3000	57.1921
377.2000	57.0415
377.1000	56.887
377.0000	56.7355
376.9000	56.578
376.8000	56.4269
376.7000	56.2702
376.6000	56.1142
376.5000	55.9476
376.4000	55.786
376.3000	55.6198
376.2000	55.4503
376.1000	55.2742
376.0000	55.0934
375.9000	54.9112
375.8000	54.7232
375.7000	54.5367
375.6000	54.3485
375.5000	54.1491
375.4000	53.9445
375.3000	53.7398
375.2000	53.5267
375.1000	53.3052
375.0000	53.0763
374.9000	52.8469
374.8000	52.6088
374.7000	52.3653
374.6000	52.1174
374.5000	51.8648
374.4000	51.6075
374.3000	51.3391
374.2000	51.0698
374.1000	50.7919
374.0000	50.4988
373.9000	50.2078
373.8000	49.9106
373.7000	49.6038
373.6000	49.2858
373.5000	48.9618
373.4000	48.6349
373.3000	48.2971
373.2000	47.9474
373.1000	47.5889
373.0000	47.2226
372.9000	46.8493
372.8000	46.4649
372.7000	46.075
372.6000	45.6742
372.5000	45.2631
372.4000	44.8471
372.3000	44.4223
372.2000	43.9845
372.1000	43.5319
372.0000	43.0749
371.9000	42.6098
371.8000	42.136
371.7000	41.6562
371.6000	41.166
371.5000	40.6712
371.4000	40.1588
371.3000	39.6368
371.2000	39.1088
371.1000	38.5718
371.0000	38.027
370.9000	37.4762
370.8000	36.9163
370.7000	36.3474
370.6000	35.7711
370.5000	35.1914
370.4000	34.6017
370.3000	34.0033
370.2000	33.4009
370.1000	32.7916
370.0000	30.291
369.9000	29.6627
369.8000	29.0304
369.7000	28.3939
369.6000	27.7547
369.5000	27.1146
369.4000	26.4694
369.3000	25.8202
369.2000	25.1759
369.1000	24.5269
369.0000	23.8792
368.9000	23.2293
368.8000	22.5861
368.7000	21.9507
368.6000	21.311
368.5000	20.6781
368.4000	20.0491
368.3000	19.4256
368.2000	18.8042
368.1000	18.1899
368.0000	17.5785
367.9000	16.9792
367.8000	16.3844
367.7000	15.8009
367.6000	15.2241
367.5000	14.6594
367.4000	14.1024
367.3000	13.5609
367.2000	13.027
367.1000	12.4984
367.0000	11.9802
366.9000	11.4743
366.8000	10.9817
366.7000	10.5008
366.6000	10.0329
366.5000	9.57375
366.4000	9.12947
366.3000	8.69573
366.2000	8.2741
366.1000	7.86513
366.0000	7.46718
365.9000	7.08106
365.8000	6.70663
365.7000	6.34538
365.6000	5.99587
365.5000	5.65858
365.4000	5.3362
365.3000	5.02567
365.2000	4.72589
365.1000	4.43586
365.0000	4.15846
364.9000	3.89459
364.8000	3.64093
364.7000	3.39892
364.6000	3.16986
364.5000	2.94921
364.4000	2.74004
364.3000	2.54158
364.2000	2.35383
364.1000	2.17392
364.0000	2.0046
363.9000	1.84526
363.8000	1.69542
363.7000	1.55501
363.6000	1.42234
363.5000	1.29779
363.4000	1.18253
363.3000	1.07427
363.2000	0.974215
363.1000	0.880995
363.0000	0.793716
362.9000	0.713587
362.8000	0.639967
362.7000	0.571943
362.6000	0.510033
362.5000	0.453775
362.4000	0.402434
362.3000	0.356077
362.2000	0.31393
362.1000	0.275578
362.0000	0.241655
361.9000	0.211547
361.8000	0.184363
361.7000	0.159972
361.6000	0.138676
361.5000	0.119833
361.4000	0.103231
361.3000	0.088947
361.2000	0.0764915
361.1000	0.0656326
361.0000	0.056011
360.9000	0.0479712
360.8000	0.0410479
360.7000	0.0351859
360.6000	0.0301708
360.5000	0.0258963
360.4000	0.0224144
360.3000	0.0193771
360.2000	0.0168641
360.1000	0.0146739
360.0000	0.0130031
359.9000	0.011632
359.8000	0.0104077
359.7000	0.00938405
359.6000	0.00858403
359.5000	0.00793452
359.4000	0.00741008
359.3000	0.00691297
359.2000	0.00648888
359.1000	0.00626341
359.0000	0.00586526
358.9000	0.00559052
358.8000	0.00526538
358.7000	0.00509003
358.6000	0.00496513
358.5000	0.00476466
358.4000	0.00453913
358.3000	0.00436377
358.2000	0.00426168
358.1000	0.00413502
358.0000	0.00401095
357.9000	0.00383682
357.8000	0.0036116
357.7000	0.0034841
357.6000	0.00340711
357.5000	0.00321122
357.4000	0.00313715
357.3000	0.00306386
357.2000	0.00301504
357.1000	0.00294202
357.0000	0.00281953
356.9000	0.00281896
356.8000	0.00279447
356.7000	0.00267274
356.6000	0.00260015
356.5000	0.00257641
356.4000	0.00250251
356.3000	0.00245393
356.2000	0.00250291
356.1000	0.00252768
356.0000	0.00250336
355.9000	0.00245444
355.8000	0.00250363
355.7000	0.00250371
355.6000	0.00248001
355.5000	0.00240658
355.4000	0.00240756
355.3000	0.00243194
355.2000	0.00240783
355.1000	0.00243192
355.0000	0.00240777
354.9000	0.00230963
354.8000	0.00235806
354.7000	0.00238226
354.6000	0.00230973
354.5000	0.00223667
354.4000	0.0021634
354.3000	0.00218735
354.2000	0.0021138
354.1000	0.00204063
354.0000	0.00199108
353.9000	0.00199147
353.8000	0.00189329
353.7000	0.00174655
353.6000	0.00169828
353.5000	0.00167418
353.4000	0.0016251
353.3000	0.00160077
353.2000	0.0015035
353.1000	0.0014546
353.0000	0.00150364
352.9000	0.00147913
352.8000	0.0014791
352.7000	0.00138075
352.6000	0.00138062
352.5000	0.00135673
352.4000	0.00140684
352.3000	0.00143157
352.2000	0.00145586
352.1000	0.00148103
352.0000	0.00145597
351.9000	0.00145571
351.8000	0.00143162
351.7000	0.00145652
351.6000	0.00145654
351.5000	0.0015051
351.4000	0.00143155
351.3000	0.00138244
351.2000	0.00140675
351.1000	0.00150536
351.0000	0.00150495
350.9000	0.00152938
350.8000	0.00152904
350.7000	0.00147972
350.6000	0.00145557
350.5000	0.00147924
350.4000	0.00147931
350.3000	0.00145556
350.2000	0.00145584
350.1000	0.00150451
350.0000	0.00155366
349.9000	0.00145618
349.8000	0.00145625
349.7000	0.00145698
349.6000	0.00143259
349.5000	0.00135923
349.4000	0.00133546
349.3000	0.00131043
349.2000	0.00126125
349.1000	0.00126125
349.0000	0.00128515
348.9000	0.00126123
348.8000	0.00123748
348.7000	0.00113954
348.6000	0.00108956
348.5000	0.00104035
348.4000	0.00101588
348.3000	0.00104045
348.2000	0.00094216
348.1000	0.000965856
348.0000	0.000891997
347.9000	0.000940716
347.8000	0.000965156
347.7000	0.000940939
347.6000	0.000965387
347.5000	0.000966593
347.4000	0.000966603
347.3000	0.000917132
347.2000	0.00094014
347.1000	0.00103751
347.0000	0.00106286
346.9000	0.00106321
346.8000	0.000989718
346.7000	0.000965238
346.6000	0.00101424
346.5000	0.000965031
346.4000	0.0010148
346.3000	0.00096604
346.2000	0.000965943
346.1000	0.000990373
346.0000	0.000941072
345.9000	0.000866715
345.8000	0.000866774
345.7000	0.000941229
345.6000	0.000892759
345.5000	0.000868454
345.4000	0.000843726
345.3000	0.000794429
345.2000	0.00084295
345.1000	0.000891373
345.0000	0.000940599
344.9000	0.00096605
344.8000	0.000966026
344.7000	0.000941273
344.6000	0.000892333
344.5000	0.00084286
344.4000	0.000842784
344.3000	0.00081808
344.2000	0.000818447
344.1000	0.000768883
344.0000	0.000818314
343.9000	0.000866983
343.8000	0.000891424
343.7000	0.000964763
343.6000	0.00094011
343.5000	0.000915935
343.4000	0.000891818
343.3000	0.00094002
343.2000	0.000988907
343.1000	0.00103801
343.0000	0.0010623
342.9000	0.00111165
342.8000	0.00116053
342.7000	0.0012338
342.6000	0.00113563
342.5000	0.00111128
342.4000	0.00108653
342.3000	0.00101325
342.2000	0.00103753
342.1000	0.00106214
342.0000	0.0011363
341.9000	0.00113618
341.8000	0.00116028
341.7000	0.00111115
341.6000	0.00103765
341.5000	0.00101357
341.4000	0.000988694
341.3000	0.000915721
341.2000	0.000940617
341.1000	0.000866994
341.0000	0.000964875
340.9000	0.000940423
340.8000	0.000915513
340.7000	0.000940281
340.6000	0.000965175
340.5000	0.000891518
340.4000	0.000793302
340.3000	0.000793367
340.2000	0.000768465
340.1000	0.000792641
340.0000	0.00921536
339.9000	0.00918949
339.8000	0.00909039
339.7000	0.00909172
339.6000	0.0091404
339.5000	0.0091636
339.4000	0.00906377
339.3000	0.00901204
339.2000	0.00898809
339.1000	0.00891106
339.0000	0.00888532
338.9000	0.00878798
338.8000	0.00881233
338.7000	0.00876037
338.6000	0.00880659
338.5000	0.00875528
338.4000	0.00873233
338.3000	0.00870973
338.2000	0.00880801
338.1000	0.00875712
338.0000	0.00860948
337.9000	0.00863491
337.8000	0.00865905
337.7000	0.00861047
337.6000	0.0085578
337.5000	0.00853314
337.4000	0.00855514
337.3000	0.00865231
337.2000	0.00860282
337.1000	0.00857921
337.0000	0.0085051
336.9000	0.00857837
336.8000	0.00850284
336.7000	0.00845335
336.6000	0.00832955
336.5000	0.0083297
336.4000	0.00837698
336.3000	0.00820318
336.2000	0.00815293
336.1000	0.00807779
336.0000	0.00810322
335.9000	0.00817454
335.8000	0.00819831
335.7000	0.008075
335.6000	0.00812284
335.5000	0.00807098
335.4000	0.00797231
335.3000	0.00779938
335.2000	0.00772565
335.1000	0.00767498
335.0000	0.00772217
334.9000	0.00772195
334.8000	0.00769647
334.7000	0.00767102
334.6000	0.0076933
334.5000	0.00766696
334.4000	0.00759223
334.3000	0.00751894
334.2000	0.00742109
334.1000	0.00739582
334.0000	0.00739599
333.9000	0.00744703
333.8000	0.00754479
333.7000	0.00764262
333.6000	0.00769193
333.5000	0.00766701
333.4000	0.00759286
333.3000	0.00749189
333.2000	0.00744349
333.1000	0.00746993
333.0000	0.00739672
332.9000	0.00751958
332.8000	0.00754195
332.7000	0.0074927
332.6000	0.00746705
332.5000	0.00746658
332.4000	0.00743915
332.3000	0.00741227
332.2000	0.00731224
332.1000	0.00723849
332.0000	0.00721162
331.9000	0.00720968
331.8000	0.00728211
331.7000	0.00730773
331.6000	0.00730602
331.5000	0.00723185
331.4000	0.00723155
331.3000	0.00718225
331.2000	0.00723274
331.1000	0.00715664
331.0000	0.00708328
330.9000	0.00710662
330.8000	0.00708282
330.7000	0.00703394
330.6000	0.00708259
330.5000	0.00710696
330.4000	0.00700993
330.3000	0.00698349
330.2000	0.0069091
330.1000	0.00683265
330.0000	0.00688032
329.9000	0.00695125
329.8000	0.00687687
329.7000	0.00680348
329.6000	0.00668024
329.5000	0.00670522
329.4000	0.00675234
329.3000	0.006726
329.2000	0.00657844
329.1000	0.00662645
329.0000	0.00657803
328.9000	0.00647758
328.8000	0.00654836
328.7000	0.00657405
328.6000	0.00652593
328.5000	0.00647706
328.4000	0.00642734
328.3000	0.00640298
328.2000	0.00647581
328.1000	0.00642648
328.0000	0.00647534
327.9000	0.0064993
327.8000	0.00652482
327.7000	0.00647694
327.6000	0.00659703
327.5000	0.00649866
327.4000	0.00649766
327.3000	0.00654641
327.2000	0.00649751
327.1000	0.00642409
327.0000	0.0064237
326.9000	0.00647384
326.8000	0.00642426
326.7000	0.00637539
326.6000	0.00630253
326.5000	0.00630131
326.4000	0.00625097
326.3000	0.00622515
326.2000	0.00617587
326.1000	0.00617542
326.0000	0.00615161
325.9000	0.00619958
325.8000	0.00622224
325.7000	0.00619737
325.6000	0.00619636
325.5000	0.00614704
325.4000	0.00621831
325.3000	0.00621681
325.2000	0.00621596
325.1000	0.00628738
325.0000	0.00638309
324.9000	0.00635759
324.8000	0.00633352
324.7000	0.00623613
324.6000	0.00623404
324.5000	0.0061845
324.4000	0.00618435
324.3000	0.00618419
324.2000	0.00611102
324.1000	0.00608666
324.0000	0.00606456
323.9000	0.00608796
323.8000	0.00599056
323.7000	0.00598885
323.6000	0.00591569
323.5000	0.00584354
323.4000	0.00569814
323.3000	0.00572353
323.2000	0.00574553
323.1000	0.00579316
323.0000	0.00577037
322.9000	0.00572107
322.8000	0.00569664
322.7000	0.00562248
322.6000	0.00562118
322.5000	0.00564478
322.4000	0.0056434
322.3000	0.00556892
322.2000	0.00547207
322.1000	0.00544769
322.0000	0.00547211
321.9000	0.00539641
321.8000	0.0054441
321.7000	0.0053462
321.6000	0.00529762
321.5000	0.00529691
321.4000	0.00527063
321.3000	0.00529399
321.2000	0.00519598
321.1000	0.00517162
321.0000	0.00517298
320.9000	0.00507508
320.8000	0.00507399
320.7000	0.00507475
320.6000	0.0050981
320.5000	0.00507453
320.4000	0.00507486
320.3000	0.00512447
320.2000	0.00512284
320.1000	0.00517153
320.0000	0.00512431
319.9000	0.00510148
319.8000	0.00514948
319.7000	0.00510139
319.6000	0.00512632
319.5000	0.00517564
319.4000	0.00512548
319.3000	0.00512383
319.2000	0.00514904
319.1000	0.00517426
319.0000	0.00517463
318.9000	0.00517412
318.8000	0.00514898
318.7000	0.00514847
318.6000	0.00510097
318.5000	0.00512492
318.4000	0.00514776
318.3000	0.00514799
318.2000	0.00507492
318.1000	0.00512441
318.0000	0.00512298
317.9000	0.00507301
317.8000	0.0050744
317.7000	0.00507478
317.6000	0.00504964
317.5000	0.00502363
317.4000	0.00502169
317.3000	0.0049252
317.2000	0.00489939
317.1000	0.0048501
317.0000	0.00477711
316.9000	0.00475317
316.8000	0.00468105
316.7000	0.00465632
316.6000	0.00465533
316.5000	0.0046293
316.4000	0.00462946
316.3000	0.00455647
316.2000	0.00455524
316.1000	0.00455682
316.0000	0.00448475
315.9000	0.00443589
315.8000	0.00438725
315.7000	0.004386
315.6000	0.00441262
315.5000	0.00439035
315.4000	0.00446293
315.3000	0.00448648
315.2000	0.00455794
315.1000	0.00450835
315.0000	0.00446106
314.9000	0.00446155
314.8000	0.00450991
314.7000	0.00458371
314.6000	0.00456116
314.5000	0.00451225
314.4000	0.00453483
314.3000	0.00458331
314.2000	0.00465714
314.1000	0.00463305
314.0000	0.00458264
313.9000	0.00458124
313.8000	0.00458068
313.7000	0.00452979
313.6000	0.00450621
313.5000	0.00453128
313.4000	0.00452975
313.3000	0.00457883
313.2000	0.00445697
313.1000	0.00440541
313.0000	0.00440246
312.9000	0.00440052
312.8000	0.00437551
312.7000	0.00432724
312.6000	0.00432611
312.5000	0.00439796
312.4000	0.00442195
312.3000	0.00447004
312.2000	0.00446927
312.1000	0.00444546
312.0000	0.00446815
311.9000	0.00444223
311.8000	0.00439606
311.7000	0.00432096
311.6000	0.00429691
311.5000	0.00429842
311.4000	0.00432185
311.3000	0.00437053
311.2000	0.00434573
311.1000	0.00434659
311.0000	0.00429688
310.9000	0.00427308
310.8000	0.00427356
310.7000	0.00417494
310.6000	0.0041275
310.5000	0.00415326
310.4000	0.00405625
310.3000	0.00403028
310.2000	0.00405191
310.1000	0.00400248
310.0000	0.00404979
309.9000	0.00404736
309.8000	0.00392718
309.7000	0.00390239
309.6000	0.0039276
309.5000	0.00392454
309.4000	0.00392606
309.3000	0.00392577
309.2000	0.00392766
309.1000	0.00392648
309.0000	0.00402257
308.9000	0.00397152
308.8000	0.00401951
308.7000	0.00406847
308.6000	0.00404465
308.5000	0.00409263
308.4000	0.00406751
308.3000	0.00402031
308.2000	0.00406799
308.1000	0.00406765
308.0000	0.00404289
307.9000	0.00406759
307.8000	0.00406621
307.7000	0.00406468
307.6000	0.00401371
307.5000	0.00406312
307.4000	0.00398886
307.3000	0.00389133
307.2000	0.00384157
307.1000	0.00381761
307.0000	0.0038409
306.9000	0.00379189
306.8000	0.00381843
306.7000	0.00384308
306.6000	0.0038678
306.5000	0.00379397
306.4000	0.00374339
306.3000	0.00369244
306.2000	0.00364441
306.1000	0.00362065
306.0000	0.0035717
305.9000	0.00359599
305.8000	0.00357258
305.7000	0.00364359
305.6000	0.00369173
305.5000	0.00369175
305.4000	0.00366702
305.3000	0.00361856
305.2000	0.00359076
305.1000	0.00356613
305.0000	0.00347004
304.9000	0.00356529
304.8000	0.00356567
304.7000	0.00359009
304.6000	0.00354147
304.5000	0.00354054
304.4000	0.00363521
304.3000	0.00361131
304.2000	0.00356336
304.1000	0.00361078
304.0000	0.0035632
303.9000	0.00351495
303.8000	0.0035385
303.7000	0.00351461
303.6000	0.00353784
303.5000	0.00348978
303.4000	0.00351318
303.3000	0.00341822
303.2000	0.00346543
303.1000	0.00344091
303.0000	0.00346477
302.9000	0.00344093
302.8000	0.00339306
302.7000	0.00336815
302.6000	0.00339117
302.5000	0.00334351
302.4000	0.00334354
302.3000	0.00331979
302.2000	0.00331882
302.1000	0.00341341
302.0000	0.00338941
301.9000	0.0034132
301.8000	0.00338937
301.7000	0.00341179
301.6000	0.00336398
301.5000	0.00333951
301.4000	0.00338655
301.3000	0.00338688
301.2000	0.00329141
301.1000	0.00326778
301.0000	0.00329152
300.9000	0.00324351
300.8000	0.00319562
300.7000	0.00324227
300.6000	0.0032424
300.5000	0.00317063
300.4000	0.00309924
300.3000	0.00314674
300.2000	0.00312271
300.1000	0.0030999
300.0000	0.00312331
299.9000	0.00312355
299.8000	0.00305213
299.7000	0.00298043
299.6000	0.00302785
299.5000	0.00302852
299.4000	0.00293317
299.3000	0.0029812
299.2000	0.00295727
299.1000	0.00290975
299.0000	0.00286227
298.9000	0.00288666
298.8000	0.00295797
298.7000	0.00288588
298.6000	0.00288544
298.5000	0.00293215
298.4000	0.002932
298.3000	0.00295514
298.2000	0.00293121
298.1000	0.00302534
298.0000	0.00302554
297.9000	0.00295356
297.8000	0.00300083
297.7000	0.00295226
297.6000	0.00299987
297.5000	0.00290523
297.4000	0.00288087
297.3000	0.00285617
297.2000	0.00283288
297.1000	0.00283267
297.0000	0.00283282
296.9000	0.00271406
296.8000	0.00264256
296.7000	0.00257116
296.6000	0.00261896
296.5000	0.002548
296.4000	0.00254763
296.3000	0.00259503
296.2000	0.00261862
296.1000	0.00259518
296.0000	0.00259467
295.9000	0.00266536
295.8000	0.00271268
295.7000	0.00271295
295.6000	0.00264164
295.5000	0.00264216
295.4000	0.00261739
295.3000	0.00259344
295.2000	0.0026645
295.1000	0.00266499
295.0000	0.00264038
294.9000	0.00261683
294.8000	0.00256979
294.7000	0.00249869
294.6000	0.00249843
294.5000	0.00249849
294.4000	0.00245077
294.3000	0.0024507
294.2000	0.00238045
294.1000	0.00238081
294.0000	0.00233257
293.9000	0.00235622
293.8000	0.00242765
293.7000	0.00247506
293.6000	0.00237999
293.5000	0.00237952
293.4000	0.00237989
293.3000	0.0023559
293.2000	0.00237945
293.1000	0.00240309
293.0000	0.0022847
292.9000	0.00233151
292.8000	0.00237875
292.7000	0.00235506
292.6000	0.00237834
292.5000	0.00237799
292.4000	0.00242556
292.3000	0.00237755
292.2000	0.00230631
292.1000	0.00232982
292.0000	0.00232997
291.9000	0.00233038
291.8000	0.00230611
291.7000	0.00232998
291.6000	0.00228277
291.5000	0.00225863
291.4000	0.00228195
291.3000	0.00221073
291.2000	0.00211588
291.1000	0.00204528
291.0000	0.00199775
290.9000	0.00199773
290.8000	0.00197427
290.7000	0.00190351
290.6000	0.00190379
290.5000	0.00188016
290.4000	0.00190388
290.3000	0.00192743
290.2000	0.00190409
290.1000	0.00185611
290.0000	0.00183136
289.9000	0.00185519
289.8000	0.00185515
289.7000	0.00185574
289.6000	0.00190313
289.5000	0.00202144
289.4000	0.0019974
289.3000	0.00194999
289.2000	0.0019254
289.1000	0.0020201
289.0000	0.00204398
288.9000	0.00202005
288.8000	0.00197267
288.7000	0.00192549
288.6000	0.0019019
288.5000	0.00190209
288.4000	0.00195013
288.3000	0.00190254
288.2000	0.00192622
288.1000	0.00187863
288.0000	0.00185512
287.9000	0.00176006
287.8000	0.00178364
287.7000	0.00178306
287.6000	0.0018075
287.5000	0.00178416
287.4000	0.00173655
287.3000	0.00166547
287.2000	0.00168906
287.1000	0.00166507
287.0000	0.00173565
286.9000	0.00168785
286.8000	0.00161696
286.7000	0.00164112
286.6000	0.00164113
286.5000	0.00166495
286.4000	0.00171192
286.3000	0.00180661
286.2000	0.00183038
286.1000	0.0018308
286.0000	0.00180719
285.9000	0.00175937
285.8000	0.00182992
285.7000	0.0019013
285.6000	0.00192471
285.5000	0.00190066
285.4000	0.00180641
285.3000	0.00190184
285.2000	0.00194906
285.1000	0.00197239
285.0000	0.00197276
284.9000	0.00197206
284.8000	0.00192508
284.7000	0.00180651
284.6000	0.00173564
284.5000	0.00171191
284.4000	0.00171149
284.3000	0.00173493
284.2000	0.00159293
284.1000	0.00154538
284.0000	0.00147437
283.9000	0.00152146
283.8000	0.00156891
283.7000	0.00156878
283.6000	0.00149721
283.5000	0.00142549
283.4000	0.00137797
283.3000	0.00135453
283.2000	0.00133043
283.1000	0.00140148
283.0000	0.00140125
282.9000	0.00140114
282.8000	0.00144798
282.7000	0.00140042
282.6000	0.00151937
282.5000	0.00149546
282.4000	0.00149495
282.3000	0.00140076
282.2000	0.0013291
282.1000	0.00128148
282.0000	0.00130535
281.9000	0.00135373
281.8000	0.00135343
281.7000	0.00140033
281.6000	0.00137741
281.5000	0.00130634
281.4000	0.00132974
281.3000	0.00130574
281.2000	0.00123541
281.1000	0.00123542
281.0000	0.00111677
280.9000	0.00116413
280.8000	0.00114086
280.7000	0.00116468
280.6000	0.00118826
280.5000	0.00116419
280.4000	0.0012353
280.3000	0.00118767
280.2000	0.00118797
280.1000	0.00121227
280.0000	0.00123543
279.9000	0.00130631
279.8000	0.00135405
279.7000	0.00140206
279.6000	0.00142568
279.5000	0.00140207
279.4000	0.00149641
279.3000	0.00154346
279.2000	0.00159071
279.1000	0.0016374
279.0000	0.00163756
278.9000	0.00166164
278.8000	0.00159065
278.7000	0.00161405
278.6000	0.00161349
278.5000	0.00154175
278.4000	0.00149437
278.3000	0.00149423
278.2000	0.00147025
278.1000	0.0013987
278.0000	0.00137502
277.9000	0.0014222
277.8000	0.00139866
277.7000	0.0013042
277.6000	0.00125636
277.5000	0.00125647
277.4000	0.00130323
277.3000	0.00130334
277.2000	0.00130362
277.1000	0.00125646
277.0000	0.00123291
276.9000	0.00120941
276.8000	0.00125664
276.7000	0.00116254
276.6000	0.00118634
276.5000	0.00120991
276.4000	0.00123324
276.3000	0.00130436
276.2000	0.00130454
276.1000	0.00132826
276.0000	0.00137649
275.9000	0.00135304
275.8000	0.00132983
275.7000	0.00128177
275.6000	0.00132817
275.5000	0.00137553
275.4000	0.00135195
275.3000	0.00135236
275.2000	0.00135227
275.1000	0.00139876
275.0000	0.00137445
274.9000	0.00142166
274.8000	0.00139831
274.7000	0.00125623
274.6000	0.00130284
274.5000	0.00125563
274.4000	0.00118479
274.3000	0.00120821
274.2000	0.00113681
274.1000	0.00118433
274.0000	0.00118484
273.9000	0.0012078
273.8000	0.00127806
273.7000	0.0013253
273.6000	0.00130164
273.5000	0.00127807
273.4000	0.00123055
273.3000	0.001159
273.2000	0.00113539
273.1000	0.00118266
273.0000	0.00111142
272.9000	0.00120532
272.8000	0.00129969
272.7000	0.00127629
272.6000	0.00132403
272.5000	0.00132433
272.4000	0.001277
272.3000	0.00123042
272.2000	0.00115984
272.1000	0.00111202
272.0000	0.0011353
271.9000	0.00115879
271.8000	0.00113604
271.7000	0.0011844
271.6000	0.00125455
271.5000	0.00127797
271.4000	0.00127797
271.3000	0.00120783
271.2000	0.00115998
271.1000	0.00115909
271.0000	0.00115812
270.9000	0.00111081
270.8000	0.00106322
270.7000	0.00108606
270.6000	0.00113289
270.5000	0.00115654
270.4000	0.00113326
270.3000	0.00111
270.2000	0.00113244
270.1000	0.00110795
270.0000	0.00103774
269.9000	0.00101445
269.8000	0.00101527
269.7000	0.00101492
269.6000	0.00106242
269.5000	0.00108678
269.4000	0.00106385
269.3000	0.00111074
269.2000	0.00115818
269.1000	0.00113414
269.0000	0.00111085
268.9000	0.00108741
268.8000	0.00104004
268.7000	0.00103972
268.6000	0.00101708
268.5000	0.000993497
268.4000	0.000993181
268.3000	0.00104025
268.2000	0.00108745
268.1000	0.00108787
268.0000	0.00101667
267.9000	0.000969451
267.8000	0.00101675
267.7000	0.000969552
267.6000	0.00099303
267.5000	0.000993948
267.4000	0.000969928
267.3000	0.000969663
267.2000	0.000993766
267.1000	0.00101792
267.0000	0.00101772
266.9000	0.00104041
266.8000	0.00106377
266.7000	0.000992949
266.6000	0.000898319
266.5000	0.000945628
266.4000	0.000969465
266.3000	0.00101628
266.2000	0.00099213
266.1000	0.00106299
266.0000	0.00103951
265.9000	0.00103951
265.8000	0.00101634
265.7000	0.00106371
265.6000	0.00113413
265.5000	0.00111032
265.4000	0.00113378
265.3000	0.00115838
265.2000	0.00115885
265.1000	0.00118209
265.0000	0.00122931
264.9000	0.00122917
264.8000	0.00115871
264.7000	0.00111152
264.6000	0.00108817
264.5000	0.00104075
264.4000	0.00101714
264.3000	0.0010173
264.2000	0.000993329
264.1000	0.00101682
264.0000	0.000922232
263.9000	0.000945755
263.8000	0.000969297
263.7000	0.000945544
263.6000	0.000897648
263.5000	0.000898309
263.4000	0.000851435
263.3000	0.000779979
263.2000	0.00082675
263.1000	0.000850912
263.0000	0.000898337
262.9000	0.000898518
262.8000	0.000921986
262.7000	0.000898655
262.6000	0.000946478
262.5000	0.000875841
262.4000	0.000922781
262.3000	0.000945992
262.2000	0.000923176
262.1000	0.000970999
262.0000	0.000994945
261.9000	0.00101838
261.8000	0.0010888
261.7000	0.0011357
261.6000	0.00120649
261.5000	0.00125396
261.4000	0.00118312
261.3000	0.00118293
261.2000	0.00120667
261.1000	0.00125358
261.0000	0.00130098
260.9000	0.00134833
260.8000	0.00130164
260.7000	0.00125501
260.6000	0.00127754
260.5000	0.00120626
260.4000	0.00122997
260.3000	0.00115888
260.2000	0.00113525
260.1000	0.00118282
260.0000	0.00108849
259.9000	0.0010173
259.8000	0.000993325
259.7000	0.0010408
259.6000	0.00106399
259.5000	0.00101646
259.4000	0.000945504
259.3000	0.000945684
259.2000	0.000945686
259.1000	0.000992401
259.0000	0.000898206
258.9000	0.000945257
258.8000	0.000945097
258.7000	0.00103983
258.6000	0.00104024
258.5000	0.000992917
258.4000	0.00101661
258.3000	0.00101614
258.2000	0.00106354
258.1000	0.000992569
258.0000	0.000922915
257.9000	0.000922791
257.8000	0.000969665
257.7000	0.000969348
257.6000	0.000992464
257.5000	0.00092172
257.4000	0.000992649
257.3000	0.000969533
257.2000	0.000922797
257.1000	0.000899251
257.0000	0.000922534
256.9000	0.000922203
256.8000	0.000993399
256.7000	0.00101786
256.6000	0.00101798
256.5000	0.00101777
256.4000	0.00106441
256.3000	0.00113501
256.2000	0.00113554
256.1000	0.00108907
256.0000	0.00106578
255.9000	0.00104226
255.8000	0.00106593
255.7000	0.00104177
255.6000	0.00108835
255.5000	0.00106451
255.4000	0.000993922
255.3000	0.000946802
255.2000	0.000923034
255.1000	0.00094609
255.0000	0.000946329
254.9000	0.000923071
254.8000	0.000875465
254.7000	0.000876078
254.6000	0.000900001
254.5000	0.000899428
254.4000	0.000970274
254.3000	0.00104189
254.2000	0.0010661
254.1000	0.0010903
254.0000	0.00106757
253.9000	0.00106804
253.8000	0.00113878
253.7000	0.00116285
253.6000	0.00116319
253.5000	0.00113984
253.4000	0.0011163
253.3000	0.00116365
253.2000	0.00121159
253.1000	0.00116434
253.0000	0.0011876
252.9000	0.00121114
252.8000	0.00118784
252.7000	0.00116396
252.6000	0.00114033
252.5000	0.0011161
252.4000	0.00111555
252.3000	0.00111552
252.2000	0.00113971
252.1000	0.00121102
252.0000	0.00118706
251.9000	0.00111625
251.8000	0.00113955
251.7000	0.00113953
251.6000	0.00111529
251.5000	0.00116283
251.4000	0.00113882
251.3000	0.00113905
251.2000	0.00111528
251.1000	0.00106797
251.0000	0.00106787
250.9000	0.00111555
250.8000	0.00111563
250.7000	0.00113858
250.6000	0.00111475
250.5000	0.00111478
250.4000	0.00111501
250.3000	0.00118614
250.2000	0.00125721
250.1000	0.00130472
250.0000	0.00132907
