TITLE	13.4_NP_0
DATA TYPE	ULTRAVIOLET SPECTRUM
ORIGIN	JASCO
OWNER	
DATE	21/05/03
TIME	15:58:45
SPECTROMETER/DATA SYSTEM	
RESOLUTION	
DELTAX	-0.1
XUNITS	NANOMETERS
YUNITS	TRANSMITTANCE
FIRSTX	  850.0000
LASTX	  250.0000
NPOINTS	    6001
FIRSTY	    76.70636
MAXY	    83.80840
MINY	     0.00015
XYDATA
850.0000	76.7064
849.9000	76.8265
849.8000	76.9546
849.7000	77.0606
849.6000	77.1746
849.5000	77.2946
849.4000	77.4059
849.3000	77.5299
849.2000	77.657
849.1000	77.7843
849.0000	77.9079
848.9000	78.0258
848.8000	78.1261
848.7000	78.2431
848.6000	78.3667
848.5000	78.4754
848.4000	78.598
848.3000	78.7184
848.2000	78.8442
848.1000	78.9681
848.0000	79.1013
847.9000	79.2263
847.8000	79.3489
847.7000	79.4716
847.6000	79.5816
847.5000	79.697
847.4000	79.814
847.3000	79.9476
847.2000	80.0759
847.1000	80.2064
847.0000	80.3238
846.9000	80.4482
846.8000	80.5767
846.7000	80.7006
846.6000	80.8168
846.5000	80.9367
846.4000	81.0417
846.3000	81.152
846.2000	81.276
846.1000	81.3779
846.0000	81.4979
845.9000	81.6047
845.8000	81.7092
845.7000	81.8085
845.6000	81.9065
845.5000	82.0013
845.4000	82.0978
845.3000	82.1924
845.2000	82.2799
845.1000	82.3621
845.0000	82.4297
844.9000	82.5189
844.8000	82.6055
844.7000	82.6838
844.6000	82.7529
844.5000	82.8274
844.4000	82.8887
844.3000	82.9578
844.2000	83.0268
844.1000	83.0936
844.0000	83.1553
843.9000	83.2076
843.8000	83.2665
843.7000	83.3234
843.6000	83.3735
843.5000	83.4213
843.4000	83.473
843.3000	83.5034
843.2000	83.5466
843.1000	83.5823
843.0000	83.6194
842.9000	83.6475
842.8000	83.683
842.7000	83.709
842.6000	83.7387
842.5000	83.7512
842.4000	83.7708
842.3000	83.7856
842.2000	83.7966
842.1000	83.8013
842.0000	83.8084
841.9000	83.8037
841.8000	83.8009
841.7000	83.7998
841.6000	83.7822
841.5000	83.7688
841.4000	83.7541
841.3000	83.746
841.2000	83.7187
841.1000	83.692
841.0000	83.6492
840.9000	83.6213
840.8000	83.5801
840.7000	83.5442
840.6000	83.506
840.5000	83.4626
840.4000	83.4184
840.3000	83.3655
840.2000	83.3253
840.1000	83.2715
840.0000	83.2179
839.9000	83.162
839.8000	83.0823
839.7000	83.0086
839.6000	82.9448
839.5000	82.87
839.4000	82.7957
839.3000	82.7154
839.2000	82.6368
839.1000	82.5526
839.0000	82.4621
838.9000	82.3638
838.8000	82.2668
838.7000	82.1804
838.6000	82.0707
838.5000	81.9689
838.4000	81.8693
838.3000	81.7656
838.2000	81.669
838.1000	81.5573
838.0000	81.443
837.9000	81.3191
837.8000	81.2095
837.7000	81.0946
837.6000	80.9915
837.5000	80.8788
837.4000	80.7538
837.3000	80.6374
837.2000	80.5142
837.1000	80.3944
837.0000	80.2775
836.9000	80.1547
836.8000	80.0293
836.7000	79.9083
836.6000	79.7838
836.5000	79.655
836.4000	79.5293
836.3000	79.4132
836.2000	79.2832
836.1000	79.1622
836.0000	79.0265
835.9000	78.8994
835.8000	78.7799
835.7000	78.6573
835.6000	78.5255
835.5000	78.3932
835.4000	78.267
835.3000	78.1475
835.2000	78.0271
835.1000	77.9004
835.0000	77.7717
834.9000	77.6541
834.8000	77.5372
834.7000	77.4189
834.6000	77.3133
834.5000	77.1904
834.4000	77.0733
834.3000	76.9494
834.2000	76.8247
834.1000	76.7038
834.0000	76.6012
833.9000	76.4925
833.8000	76.3754
833.7000	76.2624
833.6000	76.1527
833.5000	76.0377
833.4000	75.9279
833.3000	75.8206
833.2000	75.7118
833.1000	75.5993
833.0000	75.4856
832.9000	75.3757
832.8000	75.2702
832.7000	75.1776
832.6000	75.0822
832.5000	74.9927
832.4000	74.8892
832.3000	74.7983
832.2000	74.7146
832.1000	74.6221
832.0000	74.5335
831.9000	74.454
831.8000	74.3822
831.7000	74.3049
831.6000	74.2246
831.5000	74.1539
831.4000	74.0865
831.3000	74.0197
831.2000	73.9501
831.1000	73.8828
831.0000	73.8285
830.9000	73.7684
830.8000	73.7212
830.7000	73.6664
830.6000	73.6119
830.5000	73.562
830.4000	73.512
830.3000	73.4622
830.2000	73.4147
830.1000	73.3746
830.0000	73.3412
829.9000	73.3177
829.8000	73.2804
829.7000	73.2557
829.6000	73.2348
829.5000	73.2097
829.4000	73.19
829.3000	73.1684
829.2000	73.1446
829.1000	73.1375
829.0000	73.1352
828.9000	73.13
828.8000	73.1272
828.7000	73.129
828.6000	73.1357
828.5000	73.1434
828.4000	73.1453
828.3000	73.1511
828.2000	73.1664
828.1000	73.1808
828.0000	73.2014
827.9000	73.2273
827.8000	73.2479
827.7000	73.2758
827.6000	73.3073
827.5000	73.3285
827.4000	73.3501
827.3000	73.4008
827.2000	73.4455
827.1000	73.4983
827.0000	73.5454
826.9000	73.5893
826.8000	73.6465
826.7000	73.7029
826.6000	73.7627
826.5000	73.8236
826.4000	73.8976
826.3000	73.9644
826.2000	74.0287
826.1000	74.095
826.0000	74.1753
825.9000	74.2548
825.8000	74.3386
825.7000	74.4061
825.6000	74.4886
825.5000	74.5649
825.4000	74.6524
825.3000	74.749
825.2000	74.8446
825.1000	74.9374
825.0000	75.0328
824.9000	75.1297
824.8000	75.2168
824.7000	75.3186
824.6000	75.4259
824.5000	75.5375
824.4000	75.6352
824.3000	75.7445
824.2000	75.8549
824.1000	75.9709
824.0000	76.0796
823.9000	76.2023
823.8000	76.3152
823.7000	76.4272
823.6000	76.5433
823.5000	76.6523
823.4000	76.7683
823.3000	76.8919
823.2000	77.009
823.1000	77.1198
823.0000	77.2417
822.9000	77.3627
822.8000	77.4847
822.7000	77.6097
822.6000	77.7377
822.5000	77.8626
822.4000	77.9886
822.3000	78.1062
822.2000	78.2303
822.1000	78.3566
822.0000	78.4775
821.9000	78.6097
821.8000	78.7345
821.7000	78.8595
821.6000	78.9899
821.5000	79.1202
821.4000	79.2451
821.3000	79.3691
821.2000	79.4978
821.1000	79.63
821.0000	79.7449
820.9000	79.8675
820.8000	79.993
820.7000	80.124
820.6000	80.2472
820.5000	80.3664
820.4000	80.4868
820.3000	80.603
820.2000	80.7278
820.1000	80.8454
820.0000	80.9688
819.9000	81.0898
819.8000	81.1986
819.7000	81.312
819.6000	81.4237
819.5000	81.5239
819.4000	81.6378
819.3000	81.741
819.2000	81.8447
819.1000	81.9305
819.0000	82.0266
818.9000	82.1257
818.8000	82.2239
818.7000	82.3199
818.6000	82.4045
818.5000	82.4921
818.4000	82.5689
818.3000	82.6426
818.2000	82.7252
818.1000	82.8017
818.0000	82.8709
817.9000	82.9376
817.8000	83.0053
817.7000	83.0625
817.6000	83.1189
817.5000	83.1817
817.4000	83.2289
817.3000	83.2766
817.2000	83.3155
817.1000	83.3579
817.0000	83.3964
816.9000	83.432
816.8000	83.4595
816.7000	83.4928
816.6000	83.5119
816.5000	83.5334
816.4000	83.5537
816.3000	83.5627
816.2000	83.569
816.1000	83.5853
816.0000	83.5872
815.9000	83.5851
815.8000	83.5887
815.7000	83.5812
815.6000	83.5779
815.5000	83.5612
815.4000	83.5371
815.3000	83.504
815.2000	83.4792
815.1000	83.4443
815.0000	83.4145
814.9000	83.3774
814.8000	83.3419
814.7000	83.3087
814.6000	83.259
814.5000	83.1982
814.4000	83.1397
814.3000	83.0861
814.2000	83.0226
814.1000	82.9558
814.0000	82.8912
813.9000	82.8195
813.8000	82.7508
813.7000	82.6776
813.6000	82.5948
813.5000	82.5187
813.4000	82.4321
813.3000	82.3431
813.2000	82.2389
813.1000	82.1449
813.0000	82.0472
812.9000	81.9512
812.8000	81.8521
812.7000	81.7464
812.6000	81.6374
812.5000	81.5298
812.4000	81.4118
812.3000	81.2963
812.2000	81.1852
812.1000	81.0723
812.0000	80.9582
811.9000	80.8398
811.8000	80.7176
811.7000	80.5966
811.6000	80.4769
811.5000	80.3502
811.4000	80.2278
811.3000	80.1051
811.2000	79.9786
811.1000	79.8513
811.0000	79.7258
810.9000	79.5947
810.8000	79.463
810.7000	79.3254
810.6000	79.1973
810.5000	79.0571
810.4000	78.9194
810.3000	78.7721
810.2000	78.6386
810.1000	78.5016
810.0000	78.3641
809.9000	78.2234
809.8000	78.0825
809.7000	77.9419
809.6000	77.8014
809.5000	77.6639
809.4000	77.5319
809.3000	77.398
809.2000	77.2616
809.1000	77.1396
809.0000	76.9962
808.9000	76.8712
808.8000	76.7371
808.7000	76.6098
808.6000	76.4799
808.5000	76.3488
808.4000	76.2282
808.3000	76.1058
808.2000	75.9858
808.1000	75.8611
808.0000	75.7394
807.9000	75.6192
807.8000	75.4922
807.7000	75.3732
807.6000	75.2567
807.5000	75.1343
807.4000	75.023
807.3000	74.9149
807.2000	74.8138
807.1000	74.7047
807.0000	74.6052
806.9000	74.5075
806.8000	74.4021
806.7000	74.2997
806.6000	74.206
806.5000	74.1132
806.4000	74.0263
806.3000	73.9425
806.2000	73.8662
806.1000	73.7914
806.0000	73.7169
805.9000	73.6447
805.8000	73.5689
805.7000	73.4935
805.6000	73.4225
805.5000	73.3683
805.4000	73.3104
805.3000	73.2468
805.2000	73.1934
805.1000	73.144
805.0000	73.0992
804.9000	73.052
804.8000	73.0094
804.7000	72.9649
804.6000	72.9265
804.5000	72.891
804.4000	72.8596
804.3000	72.838
804.2000	72.8159
804.1000	72.7916
804.0000	72.7688
803.9000	72.7524
803.8000	72.7337
803.7000	72.7293
803.6000	72.7289
803.5000	72.7248
803.4000	72.7231
803.3000	72.7296
803.2000	72.7408
803.1000	72.7559
803.0000	72.7627
802.9000	72.7763
802.8000	72.7965
802.7000	72.8145
802.6000	72.8427
802.5000	72.872
802.4000	72.9146
802.3000	72.9507
802.2000	72.9898
802.1000	73.0379
802.0000	73.0845
801.9000	73.1392
801.8000	73.1928
801.7000	73.2512
801.6000	73.3022
801.5000	73.3587
801.4000	73.4279
801.3000	73.4953
801.2000	73.5705
801.1000	73.6455
801.0000	73.7257
800.9000	73.8053
800.8000	73.8857
800.7000	73.9712
800.6000	74.0567
800.5000	74.1459
800.4000	74.2337
800.3000	74.3218
800.2000	74.4138
800.1000	74.5053
800.0000	74.6084
799.9000	74.7124
799.8000	74.8208
799.7000	74.9293
799.6000	75.041
799.5000	75.1542
799.4000	75.2653
799.3000	75.3922
799.2000	75.5095
799.1000	75.6306
799.0000	75.7593
798.9000	75.8783
798.8000	76.006
798.7000	76.1389
798.6000	76.2761
798.5000	76.4079
798.4000	76.5396
798.3000	76.6696
798.2000	76.8007
798.1000	76.9326
798.0000	77.0578
797.9000	77.1942
797.8000	77.3291
797.7000	77.4612
797.6000	77.5926
797.5000	77.7241
797.4000	77.8581
797.3000	78
797.2000	78.1349
797.1000	78.2741
797.0000	78.4052
796.9000	78.5464
796.8000	78.6848
796.7000	78.8249
796.6000	78.9582
796.5000	79.0968
796.4000	79.2335
796.3000	79.3659
796.2000	79.4989
796.1000	79.6239
796.0000	79.7602
795.9000	79.8978
795.8000	80.026
795.7000	80.1447
795.6000	80.2749
795.5000	80.3904
795.4000	80.5126
795.3000	80.6307
795.2000	80.7481
795.1000	80.8646
795.0000	80.9831
794.9000	81.0895
794.8000	81.2011
794.7000	81.3098
794.6000	81.4101
794.5000	81.5203
794.4000	81.6189
794.3000	81.7054
794.2000	81.7964
794.1000	81.8932
794.0000	81.9775
793.9000	82.0722
793.8000	82.1508
793.7000	82.2283
793.6000	82.3062
793.5000	82.3754
793.4000	82.4435
793.3000	82.506
793.2000	82.5676
793.1000	82.625
793.0000	82.6816
792.9000	82.7235
792.8000	82.7715
792.7000	82.8147
792.6000	82.8533
792.5000	82.8811
792.4000	82.9152
792.3000	82.9285
792.2000	82.9511
792.1000	82.9702
792.0000	82.9874
791.9000	82.9978
791.8000	83.0027
791.7000	83.0107
791.6000	83.0034
791.5000	82.9904
791.4000	82.9844
791.3000	82.9776
791.2000	82.9531
791.1000	82.9317
791.0000	82.9066
790.9000	82.8789
790.8000	82.845
790.7000	82.8151
790.6000	82.7691
790.5000	82.7274
790.4000	82.6722
790.3000	82.6185
790.2000	82.5536
790.1000	82.4873
790.0000	82.4256
789.9000	82.3591
789.8000	82.2792
789.7000	82.1975
789.6000	82.1243
789.5000	82.0477
789.4000	81.9561
789.3000	81.8624
789.2000	81.7655
789.1000	81.6706
789.0000	81.5746
788.9000	81.4682
788.8000	81.3594
788.7000	81.2493
788.6000	81.1456
788.5000	81.0296
788.4000	80.9084
788.3000	80.7917
788.2000	80.6751
788.1000	80.5543
788.0000	80.4306
787.9000	80.2965
787.8000	80.1686
787.7000	80.0398
787.6000	79.9079
787.5000	79.7683
787.4000	79.6306
787.3000	79.4946
787.2000	79.363
787.1000	79.2239
787.0000	79.0824
786.9000	78.9427
786.8000	78.7992
786.7000	78.6531
786.6000	78.5074
786.5000	78.3635
786.4000	78.2073
786.3000	78.0572
786.2000	77.9141
786.1000	77.7673
786.0000	77.6204
785.9000	77.4791
785.8000	77.3408
785.7000	77.1951
785.6000	77.0459
785.5000	76.8997
785.4000	76.7507
785.3000	76.6132
785.2000	76.4763
785.1000	76.3381
785.0000	76.2033
784.9000	76.0608
784.8000	75.932
784.7000	75.8051
784.6000	75.6711
784.5000	75.5401
784.4000	75.4099
784.3000	75.2767
784.2000	75.1432
784.1000	75.0159
784.0000	74.8875
783.9000	74.7692
783.8000	74.6471
783.7000	74.5249
783.6000	74.4085
783.5000	74.293
783.4000	74.1823
783.3000	74.075
783.2000	73.9623
783.1000	73.8513
783.0000	73.7468
782.9000	73.6468
782.8000	73.5445
782.7000	73.448
782.6000	73.3532
782.5000	73.2653
782.4000	73.1837
782.3000	73.0996
782.2000	73.0243
782.1000	72.9476
782.0000	72.8725
781.9000	72.8013
781.8000	72.7285
781.7000	72.661
781.6000	72.6057
781.5000	72.5504
781.4000	72.493
781.3000	72.4415
781.2000	72.3985
781.1000	72.3572
781.0000	72.3139
780.9000	72.2711
780.8000	72.2419
780.7000	72.2159
780.6000	72.1871
780.5000	72.1695
780.4000	72.1483
780.3000	72.1306
780.2000	72.1195
780.1000	72.1174
780.0000	72.1092
779.9000	72.1124
779.8000	72.1223
779.7000	72.1269
779.6000	72.1349
779.5000	72.15
779.4000	72.1759
779.3000	72.2013
779.2000	72.2246
779.1000	72.2532
779.0000	72.291
778.9000	72.3252
778.8000	72.3664
778.7000	72.4098
778.6000	72.4567
778.5000	72.507
778.4000	72.5636
778.3000	72.6177
778.2000	72.6795
778.1000	72.7498
778.0000	72.8161
777.9000	72.8885
777.8000	72.9582
777.7000	73.0427
777.6000	73.1178
777.5000	73.2005
777.4000	73.2853
777.3000	73.373
777.2000	73.471
777.1000	73.569
777.0000	73.6659
776.9000	73.7653
776.8000	73.8729
776.7000	73.9801
776.6000	74.0898
776.5000	74.1973
776.4000	74.3153
776.3000	74.4274
776.2000	74.5449
776.1000	74.661
776.0000	74.7853
775.9000	74.907
775.8000	75.0336
775.7000	75.163
775.6000	75.2874
775.5000	75.4157
775.4000	75.5523
775.3000	75.6851
775.2000	75.815
775.1000	75.952
775.0000	76.0868
774.9000	76.2276
774.8000	76.3649
774.7000	76.5068
774.6000	76.6492
774.5000	76.791
774.4000	76.9334
774.3000	77.0736
774.2000	77.2161
774.1000	77.3541
774.0000	77.5043
773.9000	77.6501
773.8000	77.7902
773.7000	77.9328
773.6000	78.0783
773.5000	78.2215
773.4000	78.3561
773.3000	78.4962
773.2000	78.6346
773.1000	78.7685
773.0000	78.9053
772.9000	79.0454
772.8000	79.1841
772.7000	79.3177
772.6000	79.4527
772.5000	79.5871
772.4000	79.7077
772.3000	79.8326
772.2000	79.9529
772.1000	80.0765
772.0000	80.197
771.9000	80.3145
771.8000	80.4358
771.7000	80.5437
771.6000	80.6576
771.5000	80.7713
771.4000	80.8762
771.3000	80.9766
771.2000	81.0723
771.1000	81.1675
771.0000	81.2583
770.9000	81.3496
770.8000	81.4353
770.7000	81.5217
770.6000	81.6033
770.5000	81.6816
770.4000	81.7526
770.3000	81.8157
770.2000	81.8786
770.1000	81.9352
770.0000	81.9884
769.9000	82.0405
769.8000	82.0909
769.7000	82.1335
769.6000	82.1757
769.5000	82.2145
769.4000	82.2444
769.3000	82.269
769.2000	82.292
769.1000	82.3077
769.0000	82.3263
768.9000	82.3302
768.8000	82.335
768.7000	82.3394
768.6000	82.3367
768.5000	82.3364
768.4000	82.3237
768.3000	82.3076
768.2000	82.2853
768.1000	82.2531
768.0000	82.2197
767.9000	82.1874
767.8000	82.1498
767.7000	82.1067
767.6000	82.0583
767.5000	82.0058
767.4000	81.9458
767.3000	81.8913
767.2000	81.8244
767.1000	81.749
767.0000	81.6742
766.9000	81.5966
766.8000	81.5118
766.7000	81.4219
766.6000	81.3333
766.5000	81.2485
766.4000	81.1551
766.3000	81.0528
766.2000	80.9452
766.1000	80.8379
766.0000	80.7274
765.9000	80.6133
765.8000	80.4953
765.7000	80.3718
765.6000	80.245
765.5000	80.1294
765.4000	80.0053
765.3000	79.8759
765.2000	79.745
765.1000	79.611
765.0000	79.4772
764.9000	79.335
764.8000	79.1938
764.7000	79.048
764.6000	78.9056
764.5000	78.7554
764.4000	78.6126
764.3000	78.4651
764.2000	78.3117
764.1000	78.1566
764.0000	78.0051
763.9000	77.8422
763.8000	77.6865
763.7000	77.529
763.6000	77.3728
763.5000	77.2191
763.4000	77.0595
763.3000	76.9036
763.2000	76.7435
763.1000	76.5862
763.0000	76.4286
762.9000	76.2738
762.8000	76.1181
762.7000	75.9647
762.6000	75.8193
762.5000	75.6695
762.4000	75.5204
762.3000	75.372
762.2000	75.224
762.1000	75.0763
762.0000	74.9355
761.9000	74.7909
761.8000	74.6493
761.7000	74.5058
761.6000	74.3717
761.5000	74.2429
761.4000	74.112
761.3000	73.9934
761.2000	73.8633
761.1000	73.7398
761.0000	73.6155
760.9000	73.4962
760.8000	73.3814
760.7000	73.2716
760.6000	73.1619
760.5000	73.0587
760.4000	72.9519
760.3000	72.8525
760.2000	72.7547
760.1000	72.664
760.0000	72.5698
759.9000	72.4757
759.8000	72.3942
759.7000	72.305
759.6000	72.2294
759.5000	72.1542
759.4000	72.0819
759.3000	72.0153
759.2000	71.9472
759.1000	71.8848
759.0000	71.8269
758.9000	71.7732
758.8000	71.7308
758.7000	71.6834
758.6000	71.6427
758.5000	71.6021
758.4000	71.5687
758.3000	71.5396
758.2000	71.5133
758.1000	71.4917
758.0000	71.4726
757.9000	71.4564
757.8000	71.4493
757.7000	71.4425
757.6000	71.4508
757.5000	71.4629
757.4000	71.468
757.3000	71.4807
757.2000	71.4941
757.1000	71.5177
757.0000	71.541
756.9000	71.5697
756.8000	71.606
756.7000	71.6502
756.6000	71.6923
756.5000	71.74
756.4000	71.793
756.3000	71.851
756.2000	71.9099
756.1000	71.9772
756.0000	72.0389
755.9000	72.1014
755.8000	72.1754
755.7000	72.2556
755.6000	72.3369
755.5000	72.4168
755.4000	72.5077
755.3000	72.6037
755.2000	72.6981
755.1000	72.7955
755.0000	72.8972
754.9000	73.0091
754.8000	73.1166
754.7000	73.2267
754.6000	73.3394
754.5000	73.4537
754.4000	73.5735
754.3000	73.6945
754.2000	73.8247
754.1000	73.9499
754.0000	74.0794
753.9000	74.2115
753.8000	74.351
753.7000	74.4854
753.6000	74.6235
753.5000	74.7613
753.4000	74.9027
753.3000	75.0374
753.2000	75.1845
753.1000	75.3293
753.0000	75.478
752.9000	75.6292
752.8000	75.7794
752.7000	75.9288
752.6000	76.0821
752.5000	76.2301
752.4000	76.3831
752.3000	76.5404
752.2000	76.6866
752.1000	76.8426
752.0000	77.0011
751.9000	77.1552
751.8000	77.309
751.7000	77.4587
751.6000	77.6084
751.5000	77.7634
751.4000	77.9146
751.3000	78.0597
751.2000	78.2082
751.1000	78.3589
751.0000	78.5006
750.9000	78.6475
750.8000	78.781
750.7000	78.9193
750.6000	79.0609
750.5000	79.1932
750.4000	79.3176
750.3000	79.4443
750.2000	79.5673
750.1000	79.6987
750.0000	79.8191
749.9000	79.9381
749.8000	80.0484
749.7000	80.1601
749.6000	80.2684
749.5000	80.371
749.4000	80.4717
749.3000	80.57
749.2000	80.6731
749.1000	80.7595
749.0000	80.84
748.9000	80.925
748.8000	81.0053
748.7000	81.0781
748.6000	81.1489
748.5000	81.2067
748.4000	81.2718
748.3000	81.3212
748.2000	81.3759
748.1000	81.4254
748.0000	81.4642
747.9000	81.508
747.8000	81.5411
747.7000	81.5668
747.6000	81.5861
747.5000	81.6051
747.4000	81.6183
747.3000	81.6247
747.2000	81.6256
747.1000	81.6221
747.0000	81.6152
746.9000	81.6058
746.8000	81.579
746.7000	81.5584
746.6000	81.5288
746.5000	81.4942
746.4000	81.4528
746.3000	81.4079
746.2000	81.3575
746.1000	81.3008
746.0000	81.2381
745.9000	81.1735
745.8000	81.1055
745.7000	81.0293
745.6000	80.958
745.5000	80.8781
745.4000	80.7862
745.3000	80.6949
745.2000	80.6016
745.1000	80.5014
745.0000	80.3963
744.9000	80.285
744.8000	80.1743
744.7000	80.0529
744.6000	79.931
744.5000	79.8099
744.4000	79.6835
744.3000	79.5558
744.2000	79.4239
744.1000	79.2914
744.0000	79.1432
743.9000	78.9956
743.8000	78.8511
743.7000	78.6996
743.6000	78.5487
743.5000	78.3939
743.4000	78.2386
743.3000	78.0831
743.2000	77.9213
743.1000	77.7624
743.0000	77.6027
742.9000	77.439
742.8000	77.2798
742.7000	77.1129
742.6000	76.9489
742.5000	76.7798
742.4000	76.6171
742.3000	76.4584
742.2000	76.2951
742.1000	76.1304
742.0000	75.9654
741.9000	75.8054
741.8000	75.6416
741.7000	75.4814
741.6000	75.3277
741.5000	75.1679
741.4000	75.0072
741.3000	74.8487
741.2000	74.6946
741.1000	74.5411
741.0000	74.3845
740.9000	74.2318
740.8000	74.0802
740.7000	73.9301
740.6000	73.7822
740.5000	73.6407
740.4000	73.5035
740.3000	73.3634
740.2000	73.231
740.1000	73.0944
740.0000	72.9051
739.9000	72.783
739.8000	72.6578
739.7000	72.5421
739.6000	72.4191
739.5000	72.3031
739.4000	72.1944
739.3000	72.0856
739.2000	71.9819
739.1000	71.8775
739.0000	71.7823
738.9000	71.6863
738.8000	71.5997
738.7000	71.5129
738.6000	71.4341
738.5000	71.3552
738.4000	71.2846
738.3000	71.2107
738.2000	71.1464
738.1000	71.0809
738.0000	71.0266
737.9000	70.9752
737.8000	70.9279
737.7000	70.887
737.6000	70.8497
737.5000	70.8184
737.4000	70.7897
737.3000	70.768
737.2000	70.748
737.1000	70.7331
737.0000	70.7214
736.9000	70.7141
736.8000	70.7118
736.7000	70.7147
736.6000	70.7261
736.5000	70.7416
736.4000	70.7639
736.3000	70.7843
736.2000	70.8114
736.1000	70.8432
736.0000	70.8784
735.9000	70.9153
735.8000	70.9526
735.7000	71.0043
735.6000	71.0597
735.5000	71.1184
735.4000	71.1789
735.3000	71.2481
735.2000	71.3186
735.1000	71.3967
735.0000	71.475
734.9000	71.5588
734.8000	71.6416
734.7000	71.7316
734.6000	71.8283
734.5000	71.9296
734.4000	72.0314
734.3000	72.143
734.2000	72.26
734.1000	72.3707
734.0000	72.4872
733.9000	72.6116
733.8000	72.738
733.7000	72.8635
733.6000	72.9935
733.5000	73.1233
733.4000	73.2543
733.3000	73.3911
733.2000	73.5335
733.1000	73.6849
733.0000	73.8273
732.9000	73.9701
732.8000	74.1189
732.7000	74.2663
732.6000	74.4194
732.5000	74.5738
732.4000	74.7263
732.3000	74.876
732.2000	75.0305
732.1000	75.1878
732.0000	75.3452
731.9000	75.5035
731.8000	75.6674
731.7000	75.8264
731.6000	75.9844
731.5000	76.1401
731.4000	76.2984
731.3000	76.4574
731.2000	76.6177
731.1000	76.7767
731.0000	76.9345
730.9000	77.0863
730.8000	77.2437
730.7000	77.3994
730.6000	77.5535
730.5000	77.7078
730.4000	77.8562
730.3000	78.0038
730.2000	78.1434
730.1000	78.2872
730.0000	78.4281
729.9000	78.5628
729.8000	78.698
729.7000	78.8308
729.6000	78.9575
729.5000	79.0831
729.4000	79.2045
729.3000	79.3287
729.2000	79.443
729.1000	79.5583
729.0000	79.6696
728.9000	79.7689
728.8000	79.8714
728.7000	79.9692
728.6000	80.0646
728.5000	80.1496
728.4000	80.2313
728.3000	80.3077
728.2000	80.382
728.1000	80.4498
728.0000	80.5105
727.9000	80.5681
727.8000	80.6229
727.7000	80.6681
727.6000	80.7083
727.5000	80.7435
727.4000	80.7711
727.3000	80.7983
727.2000	80.8152
727.1000	80.8302
727.0000	80.838
726.9000	80.8421
726.8000	80.8422
726.7000	80.8361
726.6000	80.8234
726.5000	80.8074
726.4000	80.7862
726.3000	80.759
726.2000	80.7211
726.1000	80.6784
726.0000	80.6321
725.9000	80.5797
725.8000	80.5196
725.7000	80.4566
725.6000	80.3899
725.5000	80.3143
725.4000	80.2373
725.3000	80.15
725.2000	80.0597
725.1000	79.9682
725.0000	79.8671
724.9000	79.7598
724.8000	79.6508
724.7000	79.538
724.6000	79.4171
724.5000	79.2929
724.4000	79.1639
724.3000	79.0338
724.2000	78.9016
724.1000	78.7685
724.0000	78.6286
723.9000	78.4863
723.8000	78.34
723.7000	78.1946
723.6000	78.0435
723.5000	77.8861
723.4000	77.73
723.3000	77.5695
723.2000	77.4098
723.1000	77.244
723.0000	77.0814
722.9000	76.9209
722.8000	76.7571
722.7000	76.5884
722.6000	76.4179
722.5000	76.2429
722.4000	76.0754
722.3000	75.902
722.2000	75.7295
722.1000	75.5544
722.0000	75.3816
721.9000	75.2104
721.8000	75.0418
721.7000	74.8711
721.6000	74.6989
721.5000	74.5287
721.4000	74.3594
721.3000	74.1916
721.2000	74.0277
721.1000	73.8648
721.0000	73.7052
720.9000	73.5463
720.8000	73.3883
720.7000	73.236
720.6000	73.0827
720.5000	72.9393
720.4000	72.7863
720.3000	72.638
720.2000	72.4926
720.1000	72.352
720.0000	72.2173
719.9000	72.0831
719.8000	71.9552
719.7000	71.8316
719.6000	71.7066
719.5000	71.5864
719.4000	71.4704
719.3000	71.3624
719.2000	71.2519
719.1000	71.1487
719.0000	71.0546
718.9000	70.9581
718.8000	70.8761
718.7000	70.797
718.6000	70.7178
718.5000	70.6449
718.4000	70.5736
718.3000	70.5124
718.2000	70.453
718.1000	70.3913
718.0000	70.3425
717.9000	70.2932
717.8000	70.2517
717.7000	70.2098
717.6000	70.1766
717.5000	70.1491
717.4000	70.1239
717.3000	70.1021
717.2000	70.0866
717.1000	70.0783
717.0000	70.0765
716.9000	70.0806
716.8000	70.0902
716.7000	70.0988
716.6000	70.1153
716.5000	70.1413
716.4000	70.1655
716.3000	70.2001
716.2000	70.2366
716.1000	70.284
716.0000	70.3345
715.9000	70.3861
715.8000	70.4407
715.7000	70.5069
715.6000	70.5725
715.5000	70.643
715.4000	70.7192
715.3000	70.8014
715.2000	70.8876
715.1000	70.9798
715.0000	71.0736
714.9000	71.1694
714.8000	71.2789
714.7000	71.3864
714.6000	71.5003
714.5000	71.6132
714.4000	71.733
714.3000	71.8587
714.2000	71.9879
714.1000	72.1169
714.0000	72.2541
713.9000	72.395
713.8000	72.5361
713.7000	72.6775
713.6000	72.8219
713.5000	72.9726
713.4000	73.1248
713.3000	73.2832
713.2000	73.4363
713.1000	73.5967
713.0000	73.7567
712.9000	73.9227
712.8000	74.087
712.7000	74.2486
712.6000	74.4157
712.5000	74.5878
712.4000	74.754
712.3000	74.92
712.2000	75.0899
712.1000	75.2577
712.0000	75.428
711.9000	75.5939
711.8000	75.7652
711.7000	75.9333
711.6000	76.1006
711.5000	76.2654
711.4000	76.4332
711.3000	76.5922
711.2000	76.7533
711.1000	76.9161
711.0000	77.0704
710.9000	77.2216
710.8000	77.3758
710.7000	77.5202
710.6000	77.6652
710.5000	77.8111
710.4000	77.9527
710.3000	78.09
710.2000	78.2214
710.1000	78.3512
710.0000	78.4767
709.9000	78.6015
709.8000	78.7175
709.7000	78.8308
709.6000	78.9397
709.5000	79.0408
709.4000	79.1407
709.3000	79.2349
709.2000	79.3211
709.1000	79.4085
709.0000	79.4838
708.9000	79.551
708.8000	79.6171
708.7000	79.6756
708.6000	79.7309
708.5000	79.7773
708.4000	79.8178
708.3000	79.8492
708.2000	79.8778
708.1000	79.9021
708.0000	79.9149
707.9000	79.9253
707.8000	79.9337
707.7000	79.9361
707.6000	79.9303
707.5000	79.9223
707.4000	79.9033
707.3000	79.8854
707.2000	79.8509
707.1000	79.8158
707.0000	79.7728
706.9000	79.723
706.8000	79.6714
706.7000	79.6135
706.6000	79.5409
706.5000	79.4675
706.4000	79.3908
706.3000	79.3095
706.2000	79.2195
706.1000	79.1226
706.0000	79.0212
705.9000	78.9115
705.8000	78.8036
705.7000	78.6873
705.6000	78.5667
705.5000	78.4428
705.4000	78.3122
705.3000	78.1773
705.2000	78.0386
705.1000	77.8945
705.0000	77.7485
704.9000	77.5993
704.8000	77.4468
704.7000	77.2879
704.6000	77.1268
704.5000	76.9637
704.4000	76.7985
704.3000	76.6269
704.2000	76.4536
704.1000	76.279
704.0000	76.1022
703.9000	75.9209
703.8000	75.737
703.7000	75.56
703.6000	75.3739
703.5000	75.1903
703.4000	75.0071
703.3000	74.8246
703.2000	74.6396
703.1000	74.4556
703.0000	74.27
702.9000	74.0838
702.8000	73.905
702.7000	73.7266
702.6000	73.5472
702.5000	73.3695
702.4000	73.1931
702.3000	73.022
702.2000	72.8547
702.1000	72.6816
702.0000	72.5164
701.9000	72.3508
701.8000	72.1939
701.7000	72.0323
701.6000	71.8748
701.5000	71.7247
701.4000	71.5758
701.3000	71.4277
701.2000	71.2817
701.1000	71.142
701.0000	71.0104
700.9000	70.8761
700.8000	70.7539
700.7000	70.6294
700.6000	70.5103
700.5000	70.3968
700.4000	70.2906
700.3000	70.187
700.2000	70.0846
700.1000	69.9917
700.0000	69.905
699.9000	69.8209
699.8000	69.744
699.7000	69.6734
699.6000	69.6039
699.5000	69.5421
699.4000	69.4805
699.3000	69.4314
699.2000	69.3853
699.1000	69.3505
699.0000	69.3167
698.9000	69.2894
698.8000	69.2659
698.7000	69.2532
698.6000	69.2489
698.5000	69.2439
698.4000	69.2464
698.3000	69.2533
698.2000	69.2656
698.1000	69.2845
698.0000	69.3148
697.9000	69.3454
697.8000	69.385
697.7000	69.4292
697.6000	69.4778
697.5000	69.5317
697.4000	69.5913
697.3000	69.6573
697.2000	69.7259
697.1000	69.8009
697.0000	69.8768
696.9000	69.9607
696.8000	70.0484
696.7000	70.1426
696.6000	70.2407
696.5000	70.3457
696.4000	70.4504
696.3000	70.5681
696.2000	70.688
696.1000	70.8078
696.0000	70.9333
695.9000	71.0583
695.8000	71.1957
695.7000	71.3354
695.6000	71.4776
695.5000	71.624
695.4000	71.774
695.3000	71.9307
695.2000	72.0884
695.1000	72.2477
695.0000	72.4105
694.9000	72.5739
694.8000	72.7409
694.7000	72.9072
694.6000	73.0777
694.5000	73.2534
694.4000	73.4292
694.3000	73.6082
694.2000	73.7842
694.1000	73.9619
694.0000	74.1431
693.9000	74.3211
693.8000	74.5003
693.7000	74.6763
693.6000	74.8579
693.5000	75.0383
693.4000	75.2166
693.3000	75.3957
693.2000	75.5764
693.1000	75.7539
693.0000	75.9316
692.9000	76.1024
692.8000	76.277
692.7000	76.451
692.6000	76.6203
692.5000	76.79
692.4000	76.9582
692.3000	77.1243
692.2000	77.2897
692.1000	77.4569
692.0000	77.6126
691.9000	77.7661
691.8000	77.9208
691.7000	78.0734
691.6000	78.2176
691.5000	78.3596
691.4000	78.493
691.3000	78.6291
691.2000	78.7563
691.1000	78.8783
691.0000	78.9964
690.9000	79.109
690.8000	79.2158
690.7000	79.3167
690.6000	79.4113
690.5000	79.4963
690.4000	79.5827
690.3000	79.6662
690.2000	79.7396
690.1000	79.8022
690.0000	79.8654
689.9000	79.9182
689.8000	79.9639
689.7000	80.0051
689.6000	80.0375
689.5000	80.065
689.4000	80.0867
689.3000	80.0957
689.2000	80.0987
689.1000	80.097
689.0000	80.0902
688.9000	80.0798
688.8000	80.0554
688.7000	80.0204
688.6000	79.9821
688.5000	79.9409
688.4000	79.8872
688.3000	79.83
688.2000	79.77
688.1000	79.7032
688.0000	79.6262
687.9000	79.5392
687.8000	79.4494
687.7000	79.357
687.6000	79.2595
687.5000	79.1517
687.4000	79.0358
687.3000	78.9136
687.2000	78.792
687.1000	78.6661
687.0000	78.5315
686.9000	78.3927
686.8000	78.2484
686.7000	78.1015
686.6000	77.9501
686.5000	77.7885
686.4000	77.6316
686.3000	77.474
686.2000	77.3075
686.1000	77.1394
686.0000	76.9691
685.9000	76.7976
685.8000	76.621
685.7000	76.4437
685.6000	76.2638
685.5000	76.0805
685.4000	75.9021
685.3000	75.7202
685.2000	75.5398
685.1000	75.3562
685.0000	75.1686
684.9000	74.9864
684.8000	74.8006
684.7000	74.6142
684.6000	74.4328
684.5000	74.2481
684.4000	74.062
684.3000	73.8818
684.2000	73.7085
684.1000	73.5339
684.0000	73.3591
683.9000	73.1939
683.8000	73.0217
683.7000	72.8529
683.6000	72.6894
683.5000	72.5292
683.4000	72.373
683.3000	72.2177
683.2000	72.0668
683.1000	71.9222
683.0000	71.7759
682.9000	71.642
682.8000	71.5108
682.7000	71.3803
682.6000	71.2538
682.5000	71.1316
682.4000	71.0174
682.3000	70.9044
682.2000	70.7996
682.1000	70.7001
682.0000	70.6025
681.9000	70.5098
681.8000	70.4293
681.7000	70.35
681.6000	70.2788
681.5000	70.21
681.4000	70.1493
681.3000	70.0914
681.2000	70.0394
681.1000	69.9974
681.0000	69.9602
680.9000	69.9276
680.8000	69.901
680.7000	69.8815
680.6000	69.87
680.5000	69.8626
680.4000	69.8616
680.3000	69.8654
680.2000	69.872
680.1000	69.8894
680.0000	69.9109
679.9000	69.9409
679.8000	69.9764
679.7000	70.0203
679.6000	70.0667
679.5000	70.1184
679.4000	70.1797
679.3000	70.2484
679.2000	70.3183
679.1000	70.3925
679.0000	70.4756
678.9000	70.5655
678.8000	70.6652
678.7000	70.7693
678.6000	70.877
678.5000	70.9909
678.4000	71.1102
678.3000	71.2329
678.2000	71.3621
678.1000	71.4922
678.0000	71.6365
677.9000	71.7789
677.8000	71.9209
677.7000	72.0702
677.6000	72.2257
677.5000	72.3884
677.4000	72.5494
677.3000	72.7111
677.2000	72.8743
677.1000	73.0454
677.0000	73.2171
676.9000	73.3905
676.8000	73.5619
676.7000	73.7373
676.6000	73.9112
676.5000	74.0892
676.4000	74.2622
676.3000	74.441
676.2000	74.625
676.1000	74.8024
676.0000	74.9829
675.9000	75.1603
675.8000	75.3352
675.7000	75.5126
675.6000	75.6857
675.5000	75.8574
675.4000	76.0291
675.3000	76.198
675.2000	76.3677
675.1000	76.5284
675.0000	76.6894
674.9000	76.8467
674.8000	77.0026
674.7000	77.1543
674.6000	77.2983
674.5000	77.4419
674.4000	77.5767
674.3000	77.7059
674.2000	77.8347
674.1000	77.9576
674.0000	78.079
673.9000	78.1897
673.8000	78.2953
673.7000	78.3968
673.6000	78.4919
673.5000	78.5818
673.4000	78.6683
673.3000	78.7442
673.2000	78.8177
673.1000	78.8838
673.0000	78.9416
672.9000	78.99
672.8000	79.0302
672.7000	79.0637
672.6000	79.0912
672.5000	79.1083
672.4000	79.1178
672.3000	79.1218
672.2000	79.1208
672.1000	79.1087
672.0000	79.0883
671.9000	79.0631
671.8000	79.0317
671.7000	78.9945
671.6000	78.943
671.5000	78.8834
671.4000	78.8213
671.3000	78.7544
671.2000	78.6815
671.1000	78.6035
671.0000	78.5152
670.9000	78.422
670.8000	78.3208
670.7000	78.2122
670.6000	78.0978
670.5000	77.9779
670.4000	77.8536
670.3000	77.7251
670.2000	77.592
670.1000	77.4472
670.0000	77.3037
669.9000	77.1548
669.8000	77.0009
669.7000	76.841
669.6000	76.6815
669.5000	76.5161
669.4000	76.352
669.3000	76.183
669.2000	76.0098
669.1000	75.8398
669.0000	75.664
668.9000	75.4875
668.8000	75.3094
668.7000	75.1298
668.6000	74.9451
668.5000	74.7644
668.4000	74.5742
668.3000	74.3898
668.2000	74.2021
668.1000	74.0156
668.0000	73.8298
667.9000	73.6466
667.8000	73.4617
667.7000	73.2791
667.6000	73.1017
667.5000	72.918
667.4000	72.737
667.3000	72.5591
667.2000	72.3859
667.1000	72.2106
667.0000	72.0433
666.9000	71.8767
666.8000	71.7179
666.7000	71.563
666.6000	71.41
666.5000	71.2593
666.4000	71.1156
666.3000	70.9706
666.2000	70.8321
666.1000	70.6989
666.0000	70.5675
665.9000	70.447
665.8000	70.3317
665.7000	70.2176
665.6000	70.1079
665.5000	70.0083
665.4000	69.9095
665.3000	69.8213
665.2000	69.7396
665.1000	69.6596
665.0000	69.5891
664.9000	69.5283
664.8000	69.4667
664.7000	69.4162
664.6000	69.3727
664.5000	69.3353
664.4000	69.3061
664.3000	69.2801
664.2000	69.2633
664.1000	69.2535
664.0000	69.2545
663.9000	69.2589
663.8000	69.272
663.7000	69.2911
663.6000	69.3161
663.5000	69.3473
663.4000	69.3845
663.3000	69.4296
663.2000	69.4855
663.1000	69.5439
663.0000	69.6065
662.9000	69.6795
662.8000	69.7563
662.7000	69.8389
662.6000	69.9306
662.5000	70.0313
662.4000	70.1314
662.3000	70.2418
662.2000	70.3531
662.1000	70.476
662.0000	70.6
661.9000	70.7279
661.8000	70.8641
661.7000	71.0002
661.6000	71.1426
661.5000	71.2958
661.4000	71.4478
661.3000	71.603
661.2000	71.7652
661.1000	71.9305
661.0000	72.0967
660.9000	72.2671
660.8000	72.4388
660.7000	72.6166
660.6000	72.7973
660.5000	72.9709
660.4000	73.1568
660.3000	73.3407
660.2000	73.5279
660.1000	73.7163
660.0000	73.8972
659.9000	74.0839
659.8000	74.2709
659.7000	74.4549
659.6000	74.6399
659.5000	74.8263
659.4000	75.0064
659.3000	75.1881
659.2000	75.3692
659.1000	75.5461
659.0000	75.7186
658.9000	75.9007
658.8000	76.0684
658.7000	76.2377
658.6000	76.401
658.5000	76.5648
658.4000	76.7304
658.3000	76.8831
658.2000	77.0303
658.1000	77.1759
658.0000	77.3177
657.9000	77.4545
657.8000	77.5826
657.7000	77.7065
657.6000	77.8247
657.5000	77.9352
657.4000	78.0422
657.3000	78.1321
657.2000	78.2221
657.1000	78.307
657.0000	78.3811
656.9000	78.4473
656.8000	78.5059
656.7000	78.5564
656.6000	78.6065
656.5000	78.6486
656.4000	78.6786
656.3000	78.7007
656.2000	78.7234
656.1000	78.7327
656.0000	78.7362
655.9000	78.7314
655.8000	78.7173
655.7000	78.698
655.6000	78.6696
655.5000	78.6345
655.4000	78.5899
655.3000	78.5399
655.2000	78.4759
655.1000	78.4098
655.0000	78.3372
654.9000	78.2568
654.8000	78.1708
654.7000	78.0746
654.6000	77.9704
654.5000	77.8581
654.4000	77.7406
654.3000	77.615
654.2000	77.4881
654.1000	77.3531
654.0000	77.2137
653.9000	77.0654
653.8000	76.9159
653.7000	76.7592
653.6000	76.6051
653.5000	76.4423
653.4000	76.2748
653.3000	76.1046
653.2000	75.929
653.1000	75.7516
653.0000	75.5716
652.9000	75.392
652.8000	75.2083
652.7000	75.0246
652.6000	74.8363
652.5000	74.6466
652.4000	74.4565
652.3000	74.2679
652.2000	74.0812
652.1000	73.888
652.0000	73.6952
651.9000	73.5074
651.8000	73.3188
651.7000	73.1327
651.6000	72.9443
651.5000	72.7603
651.4000	72.5794
651.3000	72.4003
651.2000	72.2262
651.1000	72.0539
651.0000	71.8845
650.9000	71.7173
650.8000	71.5576
650.7000	71.4007
650.6000	71.2453
650.5000	71.1029
650.4000	70.9642
650.3000	70.8225
650.2000	70.689
650.1000	70.5561
650.0000	70.4363
649.9000	70.3196
649.8000	70.2098
649.7000	70.1053
649.6000	70.0071
649.5000	69.9143
649.4000	69.8297
649.3000	69.7547
649.2000	69.6797
649.1000	69.617
649.0000	69.5588
648.9000	69.5053
648.8000	69.4599
648.7000	69.4258
648.6000	69.4
648.5000	69.381
648.4000	69.3671
648.3000	69.362
648.2000	69.3599
648.1000	69.3674
648.0000	69.3782
647.9000	69.3999
647.8000	69.4313
647.7000	69.4691
647.6000	69.5177
647.5000	69.5683
647.4000	69.6313
647.3000	69.6991
647.2000	69.773
647.1000	69.8521
647.0000	69.9351
646.9000	70.03
646.8000	70.1288
646.7000	70.2333
646.6000	70.3467
646.5000	70.4628
646.4000	70.5921
646.3000	70.7243
646.2000	70.8587
646.1000	70.998
646.0000	71.1402
645.9000	71.2902
645.8000	71.4399
645.7000	71.5973
645.6000	71.7608
645.5000	71.927
645.4000	72.0983
645.3000	72.2692
645.2000	72.4446
645.1000	72.6222
645.0000	72.8037
644.9000	72.9877
644.8000	73.1725
644.7000	73.3565
644.6000	73.5426
644.5000	73.7306
644.4000	73.9215
644.3000	74.1114
644.2000	74.303
644.1000	74.4953
644.0000	74.6814
643.9000	74.8658
643.8000	75.052
643.7000	75.2371
643.6000	75.421
643.5000	75.6065
643.4000	75.7823
643.3000	75.9576
643.2000	76.1227
643.1000	76.2912
643.0000	76.4574
642.9000	76.6185
642.8000	76.7747
642.7000	76.9268
642.6000	77.0721
642.5000	77.2124
642.4000	77.3482
642.3000	77.4832
642.2000	77.6059
642.1000	77.7232
642.0000	77.8388
641.9000	77.9405
641.8000	78.0403
641.7000	78.1277
641.6000	78.215
641.5000	78.2888
641.4000	78.3556
641.3000	78.4139
641.2000	78.463
641.1000	78.5015
641.0000	78.5375
640.9000	78.5623
640.8000	78.5791
640.7000	78.5871
640.6000	78.5881
640.5000	78.5793
640.4000	78.5557
640.3000	78.5315
640.2000	78.4977
640.1000	78.4566
640.0000	78.4055
639.9000	78.3489
639.8000	78.2812
639.7000	78.2116
639.6000	78.1309
639.5000	78.0473
639.4000	77.9515
639.3000	77.8481
639.2000	77.7394
639.1000	77.6222
639.0000	77.5
638.9000	77.3681
638.8000	77.2378
638.7000	77.0987
638.6000	76.9529
638.5000	76.8037
638.4000	76.6488
638.3000	76.4937
638.2000	76.3331
638.1000	76.1632
638.0000	75.9921
637.9000	75.8142
637.8000	75.6383
637.7000	75.4599
637.6000	75.2805
637.5000	75.0982
637.4000	74.9127
637.3000	74.7291
637.2000	74.5402
637.1000	74.3514
637.0000	74.1651
636.9000	73.9767
636.8000	73.7913
636.7000	73.5998
636.6000	73.4145
636.5000	73.2289
636.4000	73.0476
636.3000	72.8695
636.2000	72.6892
636.1000	72.5131
636.0000	72.3366
635.9000	72.1672
635.8000	72.0039
635.7000	71.8464
635.6000	71.6881
635.5000	71.5351
635.4000	71.3837
635.3000	71.2461
635.2000	71.1084
635.1000	70.9777
635.0000	70.8495
634.9000	70.7325
634.8000	70.6212
634.7000	70.5145
634.6000	70.4157
634.5000	70.3208
634.4000	70.2375
634.3000	70.1586
634.2000	70.08
634.1000	70.0101
634.0000	69.9527
633.9000	69.9038
633.8000	69.8632
633.7000	69.821
633.6000	69.7895
633.5000	69.7699
633.4000	69.7606
633.3000	69.7546
633.2000	69.7547
633.1000	69.7615
633.0000	69.7768
632.9000	69.8017
632.8000	69.8311
632.7000	69.8702
632.6000	69.9241
632.5000	69.9806
632.4000	70.0421
632.3000	70.1123
632.2000	70.19
632.1000	70.2777
632.0000	70.3705
631.9000	70.4664
631.8000	70.5667
631.7000	70.6775
631.6000	70.793
631.5000	70.9163
631.4000	71.0459
631.3000	71.1833
631.2000	71.324
631.1000	71.4669
631.0000	71.6085
630.9000	71.7676
630.8000	71.9276
630.7000	72.0867
630.6000	72.2541
630.5000	72.4262
630.4000	72.6002
630.3000	72.7791
630.2000	72.959
630.1000	73.1418
630.0000	73.3288
629.9000	73.5176
629.8000	73.7043
629.7000	73.8912
629.6000	74.0818
629.5000	74.2724
629.4000	74.4697
629.3000	74.6537
629.2000	74.8465
629.1000	75.0382
629.0000	75.225
628.9000	75.4114
628.8000	75.5937
628.7000	75.7746
628.6000	75.9498
628.5000	76.1227
628.4000	76.2931
628.3000	76.4626
628.2000	76.6307
628.1000	76.7923
628.0000	76.943
627.9000	77.091
627.8000	77.2321
627.7000	77.374
627.6000	77.4975
627.5000	77.6204
627.4000	77.7361
627.3000	77.8463
627.2000	77.9523
627.1000	78.0428
627.0000	78.1372
626.9000	78.2144
626.8000	78.2848
626.7000	78.3466
626.6000	78.3942
626.5000	78.4381
626.4000	78.4829
626.3000	78.5159
626.2000	78.5419
626.1000	78.5517
626.0000	78.5639
625.9000	78.5605
625.8000	78.5511
625.7000	78.5313
625.6000	78.5005
625.5000	78.4687
625.4000	78.4223
625.3000	78.3722
625.2000	78.3145
625.1000	78.2458
625.0000	78.1728
624.9000	78.0901
624.8000	77.995
624.7000	77.8987
624.6000	77.7892
624.5000	77.6764
624.4000	77.5539
624.3000	77.4234
624.2000	77.2904
624.1000	77.1496
624.0000	77.0049
623.9000	76.8551
623.8000	76.7019
623.7000	76.5458
623.6000	76.3778
623.5000	76.2076
623.4000	76.0371
623.3000	75.8635
623.2000	75.6899
623.1000	75.5081
623.0000	75.3243
622.9000	75.1384
622.8000	74.9506
622.7000	74.7698
622.6000	74.5836
622.5000	74.398
622.4000	74.2121
622.3000	74.0296
622.2000	73.8417
622.1000	73.6572
622.0000	73.48
621.9000	73.3037
621.8000	73.1279
621.7000	72.9541
621.6000	72.7791
621.5000	72.6136
621.4000	72.4535
621.3000	72.2992
621.2000	72.1465
621.1000	71.9943
621.0000	71.8467
620.9000	71.7066
620.8000	71.5713
620.7000	71.4395
620.6000	71.3164
620.5000	71.1974
620.4000	71.0866
620.3000	70.9798
620.2000	70.8841
620.1000	70.7905
620.0000	70.7092
619.9000	70.6317
619.8000	70.5601
619.7000	70.4948
619.6000	70.4404
619.5000	70.3946
619.4000	70.3555
619.3000	70.3267
619.2000	70.3067
619.1000	70.2919
619.0000	70.2834
618.9000	70.2875
618.8000	70.2952
618.7000	70.3157
618.6000	70.3387
618.5000	70.3735
618.4000	70.4157
618.3000	70.4682
618.2000	70.5267
618.1000	70.5943
618.0000	70.6706
617.9000	70.7543
617.8000	70.8433
617.7000	70.9393
617.6000	71.0429
617.5000	71.1514
617.4000	71.2696
617.3000	71.389
617.2000	71.5178
617.1000	71.6501
617.0000	71.7938
616.9000	71.9416
616.8000	72.0914
616.7000	72.2443
616.6000	72.4066
616.5000	72.5713
616.4000	72.7397
616.3000	72.9117
616.2000	73.0885
616.1000	73.2625
616.0000	73.4423
615.9000	73.6284
615.8000	73.8144
615.7000	74.0038
615.6000	74.1943
615.5000	74.3863
615.4000	74.5716
615.3000	74.7643
615.2000	74.9533
615.1000	75.1448
615.0000	75.3331
614.9000	75.519
614.8000	75.7017
614.7000	75.8813
614.6000	76.0598
614.5000	76.2402
614.4000	76.4176
614.3000	76.5854
614.2000	76.7534
614.1000	76.9128
614.0000	77.0704
613.9000	77.2184
613.8000	77.3662
613.7000	77.4986
613.6000	77.6302
613.5000	77.7555
613.4000	77.8747
613.3000	77.9861
613.2000	78.0924
613.1000	78.1899
613.0000	78.2789
612.9000	78.3593
612.8000	78.4271
612.7000	78.4897
612.6000	78.5434
612.5000	78.5889
612.4000	78.6245
612.3000	78.6541
612.2000	78.6751
612.1000	78.6876
612.0000	78.69
611.9000	78.6798
611.8000	78.6633
611.7000	78.6374
611.6000	78.6006
611.5000	78.5573
611.4000	78.5063
611.3000	78.4435
611.2000	78.3756
611.1000	78.302
611.0000	78.2169
610.9000	78.1277
610.8000	78.0276
610.7000	77.9169
610.6000	77.8016
610.5000	77.6811
610.4000	77.5593
610.3000	77.4294
610.2000	77.2884
610.1000	77.1486
610.0000	76.9994
609.9000	76.8492
609.8000	76.6926
609.7000	76.5344
609.6000	76.3696
609.5000	76.1992
609.4000	76.0275
609.3000	75.8488
609.2000	75.6747
609.1000	75.5003
609.0000	75.3219
608.9000	75.1416
608.8000	74.9609
608.7000	74.7793
608.6000	74.6024
608.5000	74.4166
608.4000	74.2386
608.3000	74.0615
608.2000	73.8877
608.1000	73.7147
608.0000	73.547
607.9000	73.3811
607.8000	73.2206
607.7000	73.0647
607.6000	72.9101
607.5000	72.7588
607.4000	72.6122
607.3000	72.4757
607.2000	72.3405
607.1000	72.2098
607.0000	72.0856
606.9000	71.9723
606.8000	71.8645
606.7000	71.7575
606.6000	71.6583
606.5000	71.5686
606.4000	71.4836
606.3000	71.4075
606.2000	71.3395
606.1000	71.2816
606.0000	71.2287
605.9000	71.1868
605.8000	71.1508
605.7000	71.1209
605.6000	71.1026
605.5000	71.0954
605.4000	71.0929
605.3000	71.1007
605.2000	71.1161
605.1000	71.1423
605.0000	71.1756
604.9000	71.2201
604.8000	71.2698
604.7000	71.3271
604.6000	71.3912
604.5000	71.463
604.4000	71.5426
604.3000	71.6381
604.2000	71.7369
604.1000	71.8404
604.0000	71.9495
603.9000	72.0653
603.8000	72.1892
603.7000	72.3161
603.6000	72.4501
603.5000	72.5923
603.4000	72.7392
603.3000	72.8872
603.2000	73.042
603.1000	73.2053
603.0000	73.3721
602.9000	73.5429
602.8000	73.7193
602.7000	73.8903
602.6000	74.0707
602.5000	74.2486
602.4000	74.4325
602.3000	74.6154
602.2000	74.8038
602.1000	74.9954
602.0000	75.1837
601.9000	75.3687
601.8000	75.5579
601.7000	75.743
601.6000	75.929
601.5000	76.115
601.4000	76.2927
601.3000	76.4697
601.2000	76.6435
601.1000	76.8133
601.0000	76.9741
600.9000	77.1403
600.8000	77.2987
600.7000	77.4509
600.6000	77.5977
600.5000	77.7368
600.4000	77.8679
600.3000	77.9966
600.2000	78.1156
600.1000	78.2304
600.0000	78.384
599.9000	78.483
599.8000	78.5703
599.7000	78.6579
599.6000	78.7307
599.5000	78.7897
599.4000	78.8437
599.3000	78.8866
599.2000	78.9225
599.1000	78.9487
599.0000	78.9695
598.9000	78.9801
598.8000	78.9798
598.7000	78.9723
598.6000	78.9496
598.5000	78.9162
598.4000	78.8764
598.3000	78.829
598.2000	78.777
598.1000	78.7112
598.0000	78.6384
597.9000	78.5618
597.8000	78.4753
597.7000	78.381
597.6000	78.2762
597.5000	78.1636
597.4000	78.045
597.3000	77.9205
597.2000	77.7896
597.1000	77.653
597.0000	77.5167
596.9000	77.3753
596.8000	77.2269
596.7000	77.0729
596.6000	76.9119
596.5000	76.7483
596.4000	76.5838
596.3000	76.4108
596.2000	76.2407
596.1000	76.0678
596.0000	75.8968
595.9000	75.7209
595.8000	75.5446
595.7000	75.3706
595.6000	75.1953
595.5000	75.0176
595.4000	74.8393
595.3000	74.6671
595.2000	74.4967
595.1000	74.328
595.0000	74.1641
594.9000	74.006
594.8000	73.8487
594.7000	73.6994
594.6000	73.5511
594.5000	73.4111
594.4000	73.2704
594.3000	73.1408
594.2000	73.0139
594.1000	72.8936
594.0000	72.7845
593.9000	72.6793
593.8000	72.5809
593.7000	72.4877
593.6000	72.4009
593.5000	72.3264
593.4000	72.2601
593.3000	72.1958
593.2000	72.1459
593.1000	72.1013
593.0000	72.0665
592.9000	72.0358
592.8000	72.0198
592.7000	72.0118
592.6000	72.0129
592.5000	72.0209
592.4000	72.0367
592.3000	72.0661
592.2000	72.0997
592.1000	72.1437
592.0000	72.2001
591.9000	72.2615
591.8000	72.3323
591.7000	72.4113
591.6000	72.4969
591.5000	72.5933
591.4000	72.6925
591.3000	72.8017
591.2000	72.9216
591.1000	73.0465
591.0000	73.1733
590.9000	73.3114
590.8000	73.454
590.7000	73.6018
590.6000	73.759
590.5000	73.9183
590.4000	74.0783
590.3000	74.2436
590.2000	74.4125
590.1000	74.5856
590.0000	74.7589
589.9000	74.936
589.8000	75.1183
589.7000	75.3008
589.6000	75.477
589.5000	75.6572
589.4000	75.8407
589.3000	76.0202
589.2000	76.1928
589.1000	76.3701
589.0000	76.5485
588.9000	76.7207
588.8000	76.8939
588.7000	77.0609
588.6000	77.2229
588.5000	77.3889
588.4000	77.544
588.3000	77.6922
588.2000	77.8382
588.1000	77.9771
588.0000	78.1142
587.9000	78.2363
587.8000	78.3587
587.7000	78.4747
587.6000	78.5909
587.5000	78.689
587.4000	78.7766
587.3000	78.8671
587.2000	78.9459
587.1000	79.0181
587.0000	79.077
586.9000	79.1255
586.8000	79.1734
586.7000	79.2129
586.6000	79.239
586.5000	79.2583
586.4000	79.2677
586.3000	79.2706
586.2000	79.2613
586.1000	79.2438
586.0000	79.2173
585.9000	79.1825
585.8000	79.1398
585.7000	79.0869
585.6000	79.0241
585.5000	78.9553
585.4000	78.8784
585.3000	78.7897
585.2000	78.6947
585.1000	78.5943
585.0000	78.4872
584.9000	78.3715
584.8000	78.2459
584.7000	78.1243
584.6000	77.9918
584.5000	77.8548
584.4000	77.7107
584.3000	77.5636
584.2000	77.4177
584.1000	77.2607
584.0000	77.1041
583.9000	76.947
583.8000	76.7918
583.7000	76.6301
583.6000	76.4644
583.5000	76.297
583.4000	76.1266
583.3000	75.9619
583.2000	75.8018
583.1000	75.637
583.0000	75.4748
582.9000	75.3161
582.8000	75.1583
582.7000	75.0004
582.6000	74.8462
582.5000	74.701
582.4000	74.5567
582.3000	74.414
582.2000	74.2758
582.1000	74.1457
582.0000	74.0179
581.9000	73.9031
581.8000	73.7951
581.7000	73.6884
581.6000	73.5902
581.5000	73.495
581.4000	73.4096
581.3000	73.3282
581.2000	73.2596
581.1000	73.2025
581.0000	73.1509
580.9000	73.1013
580.8000	73.0623
580.7000	73.0321
580.6000	73.0143
580.5000	73.0064
580.4000	73.0078
580.3000	73.0119
580.2000	73.0268
580.1000	73.0522
580.0000	73.084
579.9000	73.1281
579.8000	73.1771
579.7000	73.2365
579.6000	73.3021
579.5000	73.3791
579.4000	73.4559
579.3000	73.5494
579.2000	73.6491
579.1000	73.757
579.0000	73.8695
578.9000	73.9848
578.8000	74.1117
578.7000	74.2424
578.6000	74.3791
578.5000	74.5213
578.4000	74.6686
578.3000	74.8229
578.2000	74.9821
578.1000	75.1421
578.0000	75.3044
577.9000	75.4697
577.8000	75.6435
577.7000	75.8114
577.6000	75.9866
577.5000	76.1561
577.4000	76.3261
577.3000	76.4998
577.2000	76.6741
577.1000	76.8446
577.0000	77.0167
576.9000	77.185
576.8000	77.3517
576.7000	77.5098
576.6000	77.669
576.5000	77.8264
576.4000	77.9777
576.3000	78.1253
576.2000	78.2673
576.1000	78.4056
576.0000	78.5356
575.9000	78.6624
575.8000	78.7801
575.7000	78.892
575.6000	78.9945
575.5000	79.0933
575.4000	79.1776
575.3000	79.2632
575.2000	79.3401
575.1000	79.4076
575.0000	79.4663
574.9000	79.5169
574.8000	79.5612
574.7000	79.5928
574.6000	79.6124
574.5000	79.6254
574.4000	79.6292
574.3000	79.6236
574.2000	79.6137
574.1000	79.5938
574.0000	79.5645
573.9000	79.5282
573.8000	79.4869
573.7000	79.4312
573.6000	79.3631
573.5000	79.2897
573.4000	79.213
573.3000	79.1282
573.2000	79.0296
573.1000	78.9303
573.0000	78.8247
572.9000	78.7154
572.8000	78.5955
572.7000	78.4688
572.6000	78.3372
572.5000	78.204
572.4000	78.0631
572.3000	77.9202
572.2000	77.7702
572.1000	77.6173
572.0000	77.4671
571.9000	77.3125
571.8000	77.1535
571.7000	76.9942
571.6000	76.8379
571.5000	76.6784
571.4000	76.5201
571.3000	76.3625
571.2000	76.2089
571.1000	76.057
571.0000	75.9073
570.9000	75.754
570.8000	75.6064
570.7000	75.4658
570.6000	75.3288
570.5000	75.195
570.4000	75.0672
570.3000	74.9459
570.2000	74.829
570.1000	74.7159
570.0000	74.6122
569.9000	74.5148
569.8000	74.424
569.7000	74.341
569.6000	74.263
569.5000	74.1995
569.4000	74.1372
569.3000	74.0881
569.2000	74.0464
569.1000	74.0087
569.0000	73.9818
568.9000	73.9637
568.8000	73.9562
568.7000	73.9555
568.6000	73.9627
568.5000	73.9793
568.4000	74.0041
568.3000	74.0342
568.2000	74.0771
568.1000	74.1288
568.0000	74.1893
567.9000	74.2532
567.8000	74.3311
567.7000	74.4149
567.6000	74.51
567.5000	74.6091
567.4000	74.7153
567.3000	74.8293
567.2000	74.946
567.1000	75.071
567.0000	75.2003
566.9000	75.336
566.8000	75.4777
566.7000	75.6269
566.6000	75.7759
566.5000	75.9263
566.4000	76.0796
566.3000	76.2417
566.2000	76.4009
566.1000	76.565
566.0000	76.7249
565.9000	76.8884
565.8000	77.0495
565.7000	77.2118
565.6000	77.3742
565.5000	77.5375
565.4000	77.6973
565.3000	77.8542
565.2000	78.0079
565.1000	78.1562
565.0000	78.3083
564.9000	78.451
564.8000	78.5911
564.7000	78.7215
564.6000	78.8497
564.5000	78.9726
564.4000	79.0873
564.3000	79.1947
564.2000	79.3015
564.1000	79.3991
564.0000	79.4874
563.9000	79.565
563.8000	79.637
563.7000	79.7029
563.6000	79.7617
563.5000	79.8072
563.4000	79.8385
563.3000	79.8681
563.2000	79.8898
563.1000	79.9066
563.0000	79.9061
562.9000	79.8957
562.8000	79.8862
562.7000	79.8611
562.6000	79.8267
562.5000	79.7856
562.4000	79.7351
562.3000	79.678
562.2000	79.6118
562.1000	79.54
562.0000	79.4543
561.9000	79.3705
561.8000	79.2822
561.7000	79.1837
561.6000	79.0762
561.5000	78.9615
561.4000	78.8467
561.3000	78.7275
561.2000	78.5979
561.1000	78.4685
561.0000	78.3367
560.9000	78.1972
560.8000	78.0595
560.7000	77.9152
560.6000	77.775
560.5000	77.6263
560.4000	77.4859
560.3000	77.3384
560.2000	77.1895
560.1000	77.0395
560.0000	76.8946
559.9000	76.7487
559.8000	76.6053
559.7000	76.4634
559.6000	76.3293
559.5000	76.197
559.4000	76.0655
559.3000	75.9454
559.2000	75.8221
559.1000	75.7121
559.0000	75.6025
558.9000	75.5043
558.8000	75.4069
558.7000	75.3181
558.6000	75.2386
558.5000	75.1658
558.4000	75.1005
558.3000	75.0429
558.2000	74.9963
558.1000	74.9568
558.0000	74.9173
557.9000	74.8928
557.8000	74.8791
557.7000	74.8682
557.6000	74.8691
557.5000	74.8791
557.4000	74.8966
557.3000	74.9169
557.2000	74.9522
557.1000	74.9955
557.0000	75.0466
556.9000	75.1066
556.8000	75.1721
556.7000	75.2485
556.6000	75.3329
556.5000	75.4223
556.4000	75.5262
556.3000	75.6291
556.2000	75.7401
556.1000	75.8575
556.0000	75.9823
555.9000	76.1103
555.8000	76.2434
555.7000	76.3863
555.6000	76.5277
555.5000	76.6735
555.4000	76.8187
555.3000	76.9692
555.2000	77.1238
555.1000	77.2773
555.0000	77.4289
554.9000	77.5821
554.8000	77.7311
554.7000	77.8848
554.6000	78.0335
554.5000	78.183
554.4000	78.3305
554.3000	78.4737
554.2000	78.6131
554.1000	78.7476
554.0000	78.8789
553.9000	79.0026
553.8000	79.1276
553.7000	79.2432
553.6000	79.353
553.5000	79.4569
553.4000	79.5553
553.3000	79.6454
553.2000	79.7295
553.1000	79.8067
553.0000	79.8752
552.9000	79.9343
552.8000	79.985
552.7000	80.0234
552.6000	80.0573
552.5000	80.0807
552.4000	80.0962
552.3000	80.1036
552.2000	80.0964
552.1000	80.084
552.0000	80.0626
551.9000	80.034
551.8000	79.9975
551.7000	79.9541
551.6000	79.901
551.5000	79.8395
551.4000	79.7685
551.3000	79.692
551.2000	79.6055
551.1000	79.5178
551.0000	79.4216
550.9000	79.3227
550.8000	79.2133
550.7000	79.105
550.6000	78.9897
550.5000	78.8641
550.4000	78.7372
550.3000	78.607
550.2000	78.468
550.1000	78.3337
550.0000	78.1964
549.9000	78.056
549.8000	77.9189
549.7000	77.779
549.6000	77.6384
549.5000	77.4994
549.4000	77.3585
549.3000	77.2203
549.2000	77.086
549.1000	76.9513
549.0000	76.823
548.9000	76.7018
548.8000	76.5841
548.7000	76.4696
548.6000	76.3652
548.5000	76.2567
548.4000	76.1583
548.3000	76.0681
548.2000	75.9814
548.1000	75.8988
548.0000	75.8274
547.9000	75.7656
547.8000	75.7095
547.7000	75.6602
547.6000	75.6212
547.5000	75.588
547.4000	75.5607
547.3000	75.5493
547.2000	75.5394
547.1000	75.5359
547.0000	75.5431
546.9000	75.5661
546.8000	75.5913
546.7000	75.6248
546.6000	75.6679
546.5000	75.7235
546.4000	75.7856
546.3000	75.8487
546.2000	75.9248
546.1000	76.0072
546.0000	76.0925
545.9000	76.1853
545.8000	76.286
545.7000	76.3853
545.6000	76.5005
545.5000	76.6212
545.4000	76.7432
545.3000	76.8635
545.2000	76.9914
545.1000	77.1239
545.0000	77.2593
544.9000	77.3938
544.8000	77.5283
544.7000	77.6682
544.6000	77.8111
544.5000	77.9462
544.4000	78.091
544.3000	78.2333
544.2000	78.3742
544.1000	78.512
544.0000	78.6404
543.9000	78.7697
543.8000	78.8921
543.7000	79.0175
543.6000	79.1355
543.5000	79.244
543.4000	79.3502
543.3000	79.4511
543.2000	79.5516
543.1000	79.6393
543.0000	79.7186
542.9000	79.8005
542.8000	79.8679
542.7000	79.9258
542.6000	79.9769
542.5000	80.0203
542.4000	80.0581
542.3000	80.0848
542.2000	80.106
542.1000	80.1136
542.0000	80.1154
541.9000	80.113
541.8000	80.0983
541.7000	80.0753
541.6000	80.0391
541.5000	80.0018
541.4000	79.9532
541.3000	79.8941
541.2000	79.8268
541.1000	79.7594
541.0000	79.6839
540.9000	79.604
540.8000	79.5158
540.7000	79.4238
540.6000	79.3271
540.5000	79.2248
540.4000	79.1168
540.3000	79.0009
540.2000	78.8845
540.1000	78.7636
540.0000	78.6403
539.9000	78.5139
539.8000	78.3879
539.7000	78.2619
539.6000	78.1342
539.5000	78.0023
539.4000	77.8711
539.3000	77.7393
539.2000	77.6123
539.1000	77.4854
539.0000	77.3592
538.9000	77.2354
538.8000	77.1181
538.7000	77.0089
538.6000	76.8965
538.5000	76.7949
538.4000	76.6985
538.3000	76.6078
538.2000	76.5212
538.1000	76.4388
538.0000	76.3645
537.9000	76.2991
537.8000	76.241
537.7000	76.1893
537.6000	76.1454
537.5000	76.1066
537.4000	76.0774
537.3000	76.0585
537.2000	76.0469
537.1000	76.0415
537.0000	76.0477
536.9000	76.0605
536.8000	76.0819
536.7000	76.1047
536.6000	76.1399
536.5000	76.1864
536.4000	76.2402
536.3000	76.2975
536.2000	76.3627
536.1000	76.4405
536.0000	76.5189
535.9000	76.6057
535.8000	76.6988
535.7000	76.798
535.6000	76.9018
535.5000	77.0094
535.4000	77.1257
535.3000	77.2388
535.2000	77.3595
535.1000	77.4837
535.0000	77.6088
534.9000	77.7334
534.8000	77.8585
534.7000	77.9875
534.6000	78.1155
534.5000	78.2394
534.4000	78.3626
534.3000	78.4867
534.2000	78.6098
534.1000	78.7314
534.0000	78.8446
533.9000	78.9554
533.8000	79.0611
533.7000	79.1697
533.6000	79.2649
533.5000	79.3628
533.4000	79.4519
533.3000	79.5339
533.2000	79.6097
533.1000	79.6804
533.0000	79.7415
532.9000	79.7969
532.8000	79.8491
532.7000	79.8908
532.6000	79.9256
532.5000	79.9468
532.4000	79.9664
532.3000	79.9772
532.2000	79.9792
532.1000	79.9677
532.0000	79.954
531.9000	79.9268
531.8000	79.8929
531.7000	79.859
531.6000	79.8108
531.5000	79.757
531.4000	79.6964
531.3000	79.6279
531.2000	79.5548
531.1000	79.4719
531.0000	79.3863
530.9000	79.2969
530.8000	79.1957
530.7000	79.0909
530.6000	78.985
530.5000	78.8772
530.4000	78.7655
530.3000	78.6521
530.2000	78.5321
530.1000	78.407
530.0000	78.2853
529.9000	78.1653
529.8000	78.0435
529.7000	77.9249
529.6000	77.7969
529.5000	77.6755
529.4000	77.5536
529.3000	77.436
529.2000	77.3239
529.1000	77.2124
529.0000	77.0983
528.9000	76.9953
528.8000	76.8962
528.7000	76.8019
528.6000	76.7157
528.5000	76.6322
528.4000	76.5605
528.3000	76.4866
528.2000	76.4255
528.1000	76.3636
528.0000	76.3203
527.9000	76.2826
527.8000	76.2481
527.7000	76.2204
527.6000	76.1986
527.5000	76.1909
527.4000	76.1939
527.3000	76.2007
527.2000	76.2146
527.1000	76.2316
527.0000	76.2617
526.9000	76.2974
526.8000	76.3391
526.7000	76.39
526.6000	76.4454
526.5000	76.5124
526.4000	76.5798
526.3000	76.6564
526.2000	76.7402
526.1000	76.8294
526.0000	76.9274
525.9000	77.0251
525.8000	77.1301
525.7000	77.2311
525.6000	77.3394
525.5000	77.4526
525.4000	77.5672
525.3000	77.6842
525.2000	77.7983
525.1000	77.9171
525.0000	78.0336
524.9000	78.152
524.8000	78.2683
524.7000	78.3795
524.6000	78.4895
524.5000	78.5981
524.4000	78.7028
524.3000	78.8076
524.2000	78.9007
524.1000	78.9931
524.0000	79.0791
523.9000	79.1626
523.8000	79.2376
523.7000	79.3073
523.6000	79.3748
523.5000	79.4262
523.4000	79.4785
523.3000	79.5155
523.2000	79.5493
523.1000	79.5784
523.0000	79.5941
522.9000	79.6006
522.8000	79.6004
522.7000	79.5898
522.6000	79.5773
522.5000	79.5553
522.4000	79.5222
522.3000	79.4835
522.2000	79.4412
522.1000	79.3861
522.0000	79.3233
521.9000	79.2619
521.8000	79.1897
521.7000	79.1121
521.6000	79.027
521.5000	78.9343
521.4000	78.8433
521.3000	78.7449
521.2000	78.6458
521.1000	78.5388
521.0000	78.4294
520.9000	78.318
520.8000	78.2051
520.7000	78.0914
520.6000	77.9715
520.5000	77.8601
520.4000	77.7423
520.3000	77.6211
520.2000	77.5024
520.1000	77.3888
520.0000	77.1464
519.9000	77.0422
519.8000	76.9347
519.7000	76.8395
519.6000	76.7414
519.5000	76.6575
519.4000	76.5721
519.3000	76.4868
519.2000	76.4105
519.1000	76.3389
519.0000	76.2795
518.9000	76.2218
518.8000	76.1726
518.7000	76.1297
518.6000	76.0966
518.5000	76.0754
518.4000	76.056
518.3000	76.0422
518.2000	76.0474
518.1000	76.0486
518.0000	76.0638
517.9000	76.0794
517.8000	76.1056
517.7000	76.1419
517.6000	76.1814
517.5000	76.2314
517.4000	76.2861
517.3000	76.3504
517.2000	76.4215
517.1000	76.4907
517.0000	76.5707
516.9000	76.6515
516.8000	76.7421
516.7000	76.8365
516.6000	76.9178
516.5000	77.0155
516.4000	77.1141
516.3000	77.2175
516.2000	77.3186
516.1000	77.4201
516.0000	77.5261
515.9000	77.635
515.8000	77.7441
515.7000	77.841
515.6000	77.9383
515.5000	78.0385
515.4000	78.1325
515.3000	78.2241
515.2000	78.309
515.1000	78.3904
515.0000	78.4761
514.9000	78.5476
514.8000	78.6184
514.7000	78.6795
514.6000	78.7398
514.5000	78.7904
514.4000	78.8298
514.3000	78.8628
514.2000	78.8887
514.1000	78.9136
514.0000	78.9258
513.9000	78.9306
513.8000	78.9287
513.7000	78.9151
513.6000	78.8965
513.5000	78.8728
513.4000	78.846
513.3000	78.8085
513.2000	78.7579
513.1000	78.7034
513.0000	78.6392
512.9000	78.5726
512.8000	78.5014
512.7000	78.4252
512.6000	78.3355
512.5000	78.2456
512.4000	78.1537
512.3000	78.0567
512.2000	77.9555
512.1000	77.8548
512.0000	77.7495
511.9000	77.6383
511.8000	77.5226
511.7000	77.4097
511.6000	77.2967
511.5000	77.1854
511.4000	77.0744
511.3000	76.9645
511.2000	76.8543
511.1000	76.7442
511.0000	76.6435
510.9000	76.5424
510.8000	76.4421
510.7000	76.3493
510.6000	76.2625
510.5000	76.1787
510.4000	76.0947
510.3000	76.0206
510.2000	75.9535
510.1000	75.8965
510.0000	75.8476
509.9000	75.7953
509.8000	75.7568
509.7000	75.723
509.6000	75.7021
509.5000	75.6844
509.4000	75.6749
509.3000	75.6733
509.2000	75.6808
509.1000	75.6968
509.0000	75.7131
508.9000	75.7413
508.8000	75.7809
508.7000	75.8243
508.6000	75.877
508.5000	75.9324
508.4000	75.9941
508.3000	76.0688
508.2000	76.1383
508.1000	76.2172
508.0000	76.2959
507.9000	76.3822
507.8000	76.468
507.7000	76.5597
507.6000	76.6522
507.5000	76.7443
507.4000	76.841
507.3000	76.9359
507.2000	77.0323
507.1000	77.128
507.0000	77.2213
506.9000	77.3142
506.8000	77.4013
506.7000	77.4847
506.6000	77.5719
506.5000	77.6473
506.4000	77.7203
506.3000	77.7887
506.2000	77.8565
506.1000	77.9129
506.0000	77.9609
505.9000	78.0109
505.8000	78.052
505.7000	78.0841
505.6000	78.1096
505.5000	78.1256
505.4000	78.1303
505.3000	78.1304
505.2000	78.1285
505.1000	78.1188
505.0000	78.0993
504.9000	78.0743
504.8000	78.0382
504.7000	77.9996
504.6000	77.951
504.5000	77.8966
504.4000	77.8377
504.3000	77.7682
504.2000	77.695
504.1000	77.6174
504.0000	77.5314
503.9000	77.4455
503.8000	77.3574
503.7000	77.259
503.6000	77.151
503.5000	77.0457
503.4000	76.9372
503.3000	76.8322
503.2000	76.7276
503.1000	76.6134
503.0000	76.5057
502.9000	76.3966
502.8000	76.2901
502.7000	76.1817
502.6000	76.0771
502.5000	75.9781
502.4000	75.8869
502.3000	75.7915
502.2000	75.6983
502.1000	75.6164
502.0000	75.546
501.9000	75.4734
501.8000	75.4045
501.7000	75.3468
501.6000	75.296
501.5000	75.2526
501.4000	75.2103
501.3000	75.177
501.2000	75.1516
501.1000	75.1344
501.0000	75.1231
500.9000	75.1184
500.8000	75.1205
500.7000	75.1339
500.6000	75.1557
500.5000	75.1763
500.4000	75.2046
500.3000	75.2421
500.2000	75.2902
500.1000	75.3368
500.0000	75.3911
499.9000	75.4516
499.8000	75.5237
499.7000	75.5964
499.6000	75.671
499.5000	75.7491
499.4000	75.8302
499.3000	75.9139
499.2000	75.995
499.1000	76.0798
499.0000	76.1671
498.9000	76.2575
498.8000	76.3446
498.7000	76.4282
498.6000	76.5092
498.5000	76.5898
498.4000	76.6645
498.3000	76.7375
498.2000	76.8005
498.1000	76.8675
498.0000	76.9304
497.9000	76.9865
497.8000	77.038
497.7000	77.0808
497.6000	77.1208
497.5000	77.1555
497.4000	77.1793
497.3000	77.1961
497.2000	77.202
497.1000	77.2055
497.0000	77.2003
496.9000	77.1876
496.8000	77.1669
496.7000	77.1424
496.6000	77.1068
496.5000	77.0615
496.4000	77.0115
496.3000	76.9591
496.2000	76.8946
496.1000	76.8296
496.0000	76.7572
495.9000	76.6776
495.8000	76.5954
495.7000	76.5097
495.6000	76.4225
495.5000	76.3287
495.4000	76.2334
495.3000	76.1347
495.2000	76.0395
495.1000	75.9353
495.0000	75.8361
494.9000	75.7338
494.8000	75.6307
494.7000	75.5244
494.6000	75.4251
494.5000	75.3282
494.4000	75.2339
494.3000	75.1377
494.2000	75.0472
494.1000	74.9629
494.0000	74.8812
493.9000	74.8061
493.8000	74.7352
493.7000	74.6709
493.6000	74.6102
493.5000	74.5611
493.4000	74.5162
493.3000	74.4791
493.2000	74.4494
493.1000	74.4299
493.0000	74.4108
492.9000	74.3972
492.8000	74.3925
492.7000	74.4003
492.6000	74.4129
492.5000	74.428
492.4000	74.4492
492.3000	74.4776
492.2000	74.5146
492.1000	74.5586
492.0000	74.6036
491.9000	74.6523
491.8000	74.7064
491.7000	74.7665
491.6000	74.8262
491.5000	74.8935
491.4000	74.9703
491.3000	75.0418
491.2000	75.1158
491.1000	75.1888
491.0000	75.2678
490.9000	75.3463
490.8000	75.4242
490.7000	75.5036
490.6000	75.5773
490.5000	75.6453
490.4000	75.7137
490.3000	75.7811
490.2000	75.8399
490.1000	75.8954
490.0000	75.9509
489.9000	75.9949
489.8000	76.0294
489.7000	76.0658
489.6000	76.0897
489.5000	76.1145
489.4000	76.1243
489.3000	76.134
489.2000	76.1315
489.1000	76.1219
489.0000	76.1104
488.9000	76.0917
488.8000	76.0683
488.7000	76.0355
488.6000	75.9996
488.5000	75.9568
488.4000	75.9053
488.3000	75.8484
488.2000	75.7935
488.1000	75.7231
488.0000	75.6538
487.9000	75.5771
487.8000	75.4962
487.7000	75.4106
487.6000	75.3287
487.5000	75.2398
487.4000	75.1474
487.3000	75.051
487.2000	74.9545
487.1000	74.8586
487.0000	74.7628
486.9000	74.6694
486.8000	74.5719
486.7000	74.483
486.6000	74.3889
486.5000	74.3051
486.4000	74.222
486.3000	74.1391
486.2000	74.0674
486.1000	73.9973
486.0000	73.9298
485.9000	73.8672
485.8000	73.8086
485.7000	73.7626
485.6000	73.7179
485.5000	73.6807
485.4000	73.6515
485.3000	73.6248
485.2000	73.6137
485.1000	73.6012
485.0000	73.5939
484.9000	73.5957
484.8000	73.6049
484.7000	73.6223
484.6000	73.6412
484.5000	73.6685
484.4000	73.6987
484.3000	73.7344
484.2000	73.7777
484.1000	73.8222
484.0000	73.8744
483.9000	73.9303
483.8000	73.9849
483.7000	74.0464
483.6000	74.1074
483.5000	74.1717
483.4000	74.2407
483.3000	74.3051
483.2000	74.3703
483.1000	74.4353
483.0000	74.5007
482.9000	74.5602
482.8000	74.6223
482.7000	74.6845
482.6000	74.7398
482.5000	74.7909
482.4000	74.8371
482.3000	74.8785
482.2000	74.9173
482.1000	74.9493
482.0000	74.9778
481.9000	74.9969
481.8000	75.0136
481.7000	75.0269
481.6000	75.0318
481.5000	75.0265
481.4000	75.0133
481.3000	74.9976
481.2000	74.9767
481.1000	74.9472
481.0000	74.9118
480.9000	74.8732
480.8000	74.8306
480.7000	74.7786
480.6000	74.7247
480.5000	74.6679
480.4000	74.602
480.3000	74.5317
480.2000	74.4526
480.1000	74.3729
480.0000	74.2878
479.9000	74.2016
479.8000	74.1172
479.7000	74.0356
479.6000	73.946
479.5000	73.8613
479.4000	73.7765
479.3000	73.6905
479.2000	73.601
479.1000	73.5164
479.0000	73.438
478.9000	73.3597
478.8000	73.2841
478.7000	73.2136
478.6000	73.1489
478.5000	73.0914
478.4000	73.038
478.3000	72.9936
478.2000	72.9529
478.1000	72.9115
478.0000	72.8813
477.9000	72.852
477.8000	72.8282
477.7000	72.8129
477.6000	72.8083
477.5000	72.8084
477.4000	72.8089
477.3000	72.8144
477.2000	72.8298
477.1000	72.8495
477.0000	72.8725
476.9000	72.9015
476.8000	72.938
476.7000	72.9749
476.6000	73.0124
476.5000	73.0557
476.4000	73.1019
476.3000	73.1543
476.2000	73.2082
476.1000	73.2603
476.0000	73.315
475.9000	73.3686
475.8000	73.4234
475.7000	73.4761
475.6000	73.5269
475.5000	73.5782
475.4000	73.6331
475.3000	73.6781
475.2000	73.7219
475.1000	73.7621
475.0000	73.8066
474.9000	73.8423
474.8000	73.8712
474.7000	73.8951
474.6000	73.9139
474.5000	73.9338
474.4000	73.9364
474.3000	73.9378
474.2000	73.9353
474.1000	73.9337
474.0000	73.9205
473.9000	73.9031
473.8000	73.8806
473.7000	73.8514
473.6000	73.8186
473.5000	73.7805
473.4000	73.7332
473.3000	73.6845
473.2000	73.631
473.1000	73.5742
473.0000	73.5159
472.9000	73.449
472.8000	73.3907
472.7000	73.3272
472.6000	73.261
472.5000	73.1829
472.4000	73.1111
472.3000	73.0368
472.2000	72.9592
472.1000	72.8844
472.0000	72.8097
471.9000	72.7346
471.8000	72.663
471.7000	72.5937
471.6000	72.5295
471.5000	72.4677
471.4000	72.4091
471.3000	72.3563
471.2000	72.3022
471.1000	72.2573
471.0000	72.2141
470.9000	72.1822
470.8000	72.1542
470.7000	72.1319
470.6000	72.1134
470.5000	72.0984
470.4000	72.0906
470.3000	72.092
470.2000	72.0951
470.1000	72.1012
470.0000	72.1144
469.9000	72.1307
469.8000	72.1532
469.7000	72.177
469.6000	72.2089
469.5000	72.2375
469.4000	72.275
469.3000	72.3117
469.2000	72.3539
469.1000	72.3959
469.0000	72.4432
468.9000	72.4918
468.8000	72.5372
468.7000	72.5816
468.6000	72.6249
468.5000	72.6724
468.4000	72.7167
468.3000	72.7582
468.2000	72.7953
468.1000	72.8331
468.0000	72.866
467.9000	72.8995
467.8000	72.9229
467.7000	72.9515
467.6000	72.9696
467.5000	72.9858
467.4000	72.9906
467.3000	72.9943
467.2000	72.9955
467.1000	72.994
467.0000	72.991
466.9000	72.9719
466.8000	72.9556
466.7000	72.9335
466.6000	72.9061
466.5000	72.8748
466.4000	72.8411
466.3000	72.8003
466.2000	72.7577
466.1000	72.702
466.0000	72.6517
465.9000	72.5949
465.8000	72.5408
465.7000	72.4832
465.6000	72.4246
465.5000	72.3584
465.4000	72.2952
465.3000	72.239
465.2000	72.1769
465.1000	72.1135
465.0000	72.0533
464.9000	71.9933
464.8000	71.9348
464.7000	71.879
464.6000	71.8265
464.5000	71.7793
464.4000	71.7312
464.3000	71.6852
464.2000	71.6465
464.1000	71.6137
464.0000	71.5801
463.9000	71.5539
463.8000	71.5307
463.7000	71.5096
463.6000	71.4972
463.5000	71.4895
463.4000	71.4886
463.3000	71.489
463.2000	71.4931
463.1000	71.5049
463.0000	71.5188
462.9000	71.5373
462.8000	71.5585
462.7000	71.5867
462.6000	71.6093
462.5000	71.6399
462.4000	71.6698
462.3000	71.7077
462.2000	71.7441
462.1000	71.7819
462.0000	71.8191
461.9000	71.8548
461.8000	71.8878
461.7000	71.9269
461.6000	71.9636
461.5000	71.9976
461.4000	72.0278
461.3000	72.0576
461.2000	72.0878
461.1000	72.1123
461.0000	72.1386
460.9000	72.1579
460.8000	72.179
460.7000	72.1892
460.6000	72.1944
460.5000	72.2014
460.4000	72.2017
460.3000	72.2014
460.2000	72.2003
460.1000	72.1877
460.0000	72.1763
459.9000	72.1564
459.8000	72.135
459.7000	72.1117
459.6000	72.0836
459.5000	72.055
459.4000	72.0233
459.3000	71.9879
459.2000	71.9479
459.1000	71.912
459.0000	71.8738
458.9000	71.8276
458.8000	71.7843
458.7000	71.7405
458.6000	71.6948
458.5000	71.6452
458.4000	71.5997
458.3000	71.5572
458.2000	71.516
458.1000	71.473
458.0000	71.4319
457.9000	71.3968
457.8000	71.363
457.7000	71.3258
457.6000	71.2956
457.5000	71.2625
457.4000	71.2356
457.3000	71.218
457.2000	71.1995
457.1000	71.1827
457.0000	71.1702
456.9000	71.1669
456.8000	71.1584
456.7000	71.1586
456.6000	71.1612
456.5000	71.168
456.4000	71.1771
456.3000	71.1853
456.2000	71.1969
456.1000	71.2122
456.0000	71.2304
455.9000	71.2533
455.8000	71.2748
455.7000	71.2959
455.6000	71.3195
455.5000	71.3494
455.4000	71.3738
455.3000	71.4022
455.2000	71.4313
455.1000	71.452
455.0000	71.476
454.9000	71.4981
454.8000	71.5196
454.7000	71.5366
454.6000	71.5534
454.5000	71.5746
454.4000	71.5931
454.3000	71.6067
454.2000	71.6175
454.1000	71.629
454.0000	71.6306
453.9000	71.6306
453.8000	71.6314
453.7000	71.6258
453.6000	71.6183
453.5000	71.6152
453.4000	71.6082
453.3000	71.5966
453.2000	71.5801
453.1000	71.5662
453.0000	71.5488
452.9000	71.5269
452.8000	71.5012
452.7000	71.4757
452.6000	71.4496
452.5000	71.4218
452.4000	71.3948
452.3000	71.3682
452.2000	71.341
452.1000	71.3129
452.0000	71.2825
451.9000	71.2514
451.8000	71.2221
451.7000	71.1985
451.6000	71.1734
451.5000	71.1498
451.4000	71.1235
451.3000	71.0996
451.2000	71.0821
451.1000	71.065
451.0000	71.0562
450.9000	71.0442
450.8000	71.0323
450.7000	71.0185
450.6000	71.0136
450.5000	71.0088
450.4000	71.0094
450.3000	71.0129
450.2000	71.0154
450.1000	71.0196
450.0000	71.027
449.9000	71.0351
449.8000	71.0502
449.7000	71.0638
449.6000	71.0771
449.5000	71.0913
449.4000	71.1035
449.3000	71.1181
449.2000	71.1367
449.1000	71.1527
449.0000	71.1663
448.9000	71.1839
448.8000	71.1991
448.7000	71.2141
448.6000	71.2275
448.5000	71.2391
448.4000	71.2526
448.3000	71.2666
448.2000	71.2722
448.1000	71.2774
448.0000	71.2798
447.9000	71.2784
447.8000	71.2772
447.7000	71.274
447.6000	71.272
447.5000	71.27
447.4000	71.2662
447.3000	71.2576
447.2000	71.2433
447.1000	71.2282
447.0000	71.218
446.9000	71.1982
446.8000	71.1794
446.7000	71.1561
446.6000	71.1417
446.5000	71.1248
446.4000	71.1101
446.3000	71.0954
446.2000	71.0769
446.1000	71.0613
446.0000	71.0434
445.9000	71.0274
445.8000	71.0063
445.7000	70.9893
445.6000	70.9775
445.5000	70.9685
445.4000	70.9528
445.3000	70.9466
445.2000	70.9411
445.1000	70.9398
445.0000	70.9324
444.9000	70.9238
444.8000	70.9212
444.7000	70.923
444.6000	70.9243
444.5000	70.9268
444.4000	70.928
444.3000	70.931
444.2000	70.9419
444.1000	70.9528
444.0000	70.9623
443.9000	70.9718
443.8000	70.9844
443.7000	70.9968
443.6000	71.0094
443.5000	71.019
443.4000	71.0299
443.3000	71.0484
443.2000	71.0567
443.1000	71.0627
443.0000	71.0713
442.9000	71.0769
442.8000	71.0871
442.7000	71.0939
442.6000	71.0994
442.5000	71.1022
442.4000	71.1048
442.3000	71.1005
442.2000	71.0975
442.1000	71.0911
442.0000	71.0822
441.9000	71.0739
441.8000	71.0646
441.7000	71.0538
441.6000	71.046
441.5000	71.0367
441.4000	71.0296
441.3000	71.0208
441.2000	71.0037
441.1000	70.9941
441.0000	70.9778
440.9000	70.9649
440.8000	70.9539
440.7000	70.9462
440.6000	70.9323
440.5000	70.9207
440.4000	70.9123
440.3000	70.908
440.2000	70.9054
440.1000	70.9013
440.0000	70.8921
439.9000	70.8893
439.8000	70.883
439.7000	70.8774
439.6000	70.8818
439.5000	70.8814
439.4000	70.888
439.3000	70.8906
439.2000	70.8979
439.1000	70.9041
439.0000	70.9137
438.9000	70.9252
438.8000	70.9378
438.7000	70.9469
438.6000	70.9576
438.5000	70.9667
438.4000	70.9792
438.3000	70.992
438.2000	71.0079
438.1000	71.0285
438.0000	71.0395
437.9000	71.0532
437.8000	71.0606
437.7000	71.0769
437.6000	71.0874
437.5000	71.0929
437.4000	71.0993
437.3000	71.1026
437.2000	71.1014
437.1000	71.1064
437.0000	71.107
436.9000	71.1094
436.8000	71.109
436.7000	71.1033
436.6000	71.0952
436.5000	71.0858
436.4000	71.079
436.3000	71.0648
436.2000	71.0575
436.1000	71.0406
436.0000	71.0208
435.9000	71.01
435.8000	70.9989
435.7000	70.9898
435.6000	70.979
435.5000	70.9635
435.4000	70.9487
435.3000	70.9331
435.2000	70.9214
435.1000	70.9129
435.0000	70.9035
434.9000	70.8909
434.8000	70.8856
434.7000	70.8877
434.6000	70.8869
434.5000	70.8876
434.4000	70.8925
434.3000	70.8975
434.2000	70.9004
434.1000	70.9039
434.0000	70.9159
433.9000	70.9304
433.8000	70.9457
433.7000	70.9619
433.6000	70.9829
433.5000	71.0017
433.4000	71.0263
433.3000	71.0482
433.2000	71.0722
433.1000	71.0915
433.0000	71.1137
432.9000	71.1393
432.8000	71.1629
432.7000	71.183
432.6000	71.2035
432.5000	71.226
432.4000	71.2472
432.3000	71.2573
432.2000	71.2718
432.1000	71.2833
432.0000	71.2901
431.9000	71.3001
431.8000	71.3005
431.7000	71.302
431.6000	71.2986
431.5000	71.2931
431.4000	71.2838
431.3000	71.2717
431.2000	71.2615
431.1000	71.2505
431.0000	71.2397
430.9000	71.223
430.8000	71.1999
430.7000	71.1834
430.6000	71.1652
430.5000	71.1493
430.4000	71.1336
430.3000	71.1143
430.2000	71.0983
430.1000	71.0871
430.0000	71.0707
429.9000	71.0633
429.8000	71.0546
429.7000	71.0455
429.6000	71.0378
429.5000	71.0314
429.4000	71.0288
429.3000	71.0339
429.2000	71.0404
429.1000	71.0483
429.0000	71.0554
428.9000	71.067
428.8000	71.0794
428.7000	71.0969
428.6000	71.1162
428.5000	71.1357
428.4000	71.1632
428.3000	71.1881
428.2000	71.2166
428.1000	71.2467
428.0000	71.2759
427.9000	71.3099
427.8000	71.3429
427.7000	71.3675
427.6000	71.3936
427.5000	71.4286
427.4000	71.4606
427.3000	71.4868
427.2000	71.5109
427.1000	71.5308
427.0000	71.5536
426.9000	71.5725
426.8000	71.5918
426.7000	71.6063
426.6000	71.6206
426.5000	71.6296
426.4000	71.6383
426.3000	71.6417
426.2000	71.6437
426.1000	71.6498
426.0000	71.6542
425.9000	71.6485
425.8000	71.6449
425.7000	71.6429
425.6000	71.6406
425.5000	71.6389
425.4000	71.6373
425.3000	71.6346
425.2000	71.6258
425.1000	71.6225
425.0000	71.6144
424.9000	71.6181
424.8000	71.6178
424.7000	71.6208
424.6000	71.6257
424.5000	71.6318
424.4000	71.6363
424.3000	71.6454
424.2000	71.656
424.1000	71.67
424.0000	71.6847
423.9000	71.7058
423.8000	71.7254
423.7000	71.7513
423.6000	71.7792
423.5000	71.8117
423.4000	71.846
423.3000	71.8771
423.2000	71.9121
423.1000	71.9484
423.0000	71.982
422.9000	72.0143
422.8000	72.0519
422.7000	72.0873
422.6000	72.1259
422.5000	72.1638
422.4000	72.1966
422.3000	72.2277
422.2000	72.2574
422.1000	72.2835
422.0000	72.3104
421.9000	72.3315
421.8000	72.3514
421.7000	72.3679
421.6000	72.3844
421.5000	72.3965
421.4000	72.4066
421.3000	72.4162
421.2000	72.4205
421.1000	72.4187
421.0000	72.4128
420.9000	72.4068
420.8000	72.4021
420.7000	72.3862
420.6000	72.3716
420.5000	72.3598
420.4000	72.3487
420.3000	72.3315
420.2000	72.3152
420.1000	72.3055
420.0000	72.0615
419.9000	72.046
419.8000	72.0259
419.7000	72.0069
419.6000	71.9974
419.5000	71.9896
419.4000	71.9781
419.3000	71.9717
419.2000	71.9717
419.1000	71.9771
419.0000	71.985
418.9000	71.9954
418.8000	72.0071
418.7000	72.0327
418.6000	72.0495
418.5000	72.0726
418.4000	72.0953
418.3000	72.1191
418.2000	72.1427
418.1000	72.1753
418.0000	72.2103
417.9000	72.2417
417.8000	72.2826
417.7000	72.3136
417.6000	72.3454
417.5000	72.3801
417.4000	72.4101
417.3000	72.4376
417.2000	72.4665
417.1000	72.4844
417.0000	72.5033
416.9000	72.518
416.8000	72.5367
416.7000	72.5459
416.6000	72.5611
416.5000	72.5657
416.4000	72.5676
416.3000	72.5661
416.2000	72.5613
416.1000	72.5563
416.0000	72.5529
415.9000	72.5388
415.8000	72.5224
415.7000	72.5089
415.6000	72.4967
415.5000	72.4817
415.4000	72.4722
415.3000	72.46
415.2000	72.4439
415.1000	72.4379
415.0000	72.4292
414.9000	72.4246
414.8000	72.416
414.7000	72.4132
414.6000	72.4114
414.5000	72.4174
414.4000	72.4249
414.3000	72.4343
414.2000	72.4532
414.1000	72.4786
414.0000	72.4997
413.9000	72.5257
413.8000	72.5527
413.7000	72.584
413.6000	72.6176
413.5000	72.6473
413.4000	72.6799
413.3000	72.7122
413.2000	72.755
413.1000	72.7908
413.0000	72.8283
412.9000	72.8631
412.8000	72.8929
412.7000	72.9281
412.6000	72.9569
412.5000	72.9771
412.4000	72.9984
412.3000	73.0199
412.2000	73.0385
412.1000	73.0541
412.0000	73.0685
411.9000	73.0772
411.8000	73.0845
411.7000	73.0947
411.6000	73.0859
411.5000	73.0865
411.4000	73.0832
411.3000	73.0739
411.2000	73.0683
411.1000	73.0621
411.0000	73.0505
410.9000	73.0414
410.8000	73.0301
410.7000	73.022
410.6000	73.0146
410.5000	73.006
410.4000	72.9934
410.3000	72.9895
410.2000	72.9926
410.1000	72.9907
410.0000	73
409.9000	73.0041
409.8000	73.0113
409.7000	73.0272
409.6000	73.043
409.5000	73.0606
409.4000	73.0804
409.3000	73.1055
409.2000	73.1343
409.1000	73.1535
409.0000	73.18
408.9000	73.2083
408.8000	73.2418
408.7000	73.2763
408.6000	73.3034
408.5000	73.3312
408.4000	73.3544
408.3000	73.3809
408.2000	73.4036
408.1000	73.4202
408.0000	73.4388
407.9000	73.4519
407.8000	73.467
407.7000	73.4678
407.6000	73.4696
407.5000	73.4747
407.4000	73.4669
407.3000	73.4661
407.2000	73.4561
407.1000	73.4407
407.0000	73.4221
406.9000	73.4056
406.8000	73.3888
406.7000	73.3696
406.6000	73.3494
406.5000	73.3279
406.4000	73.3005
406.3000	73.2789
406.2000	73.2535
406.1000	73.2395
406.0000	73.2288
405.9000	73.2129
405.8000	73.2074
405.7000	73.1946
405.6000	73.1874
405.5000	73.1869
405.4000	73.1854
405.3000	73.1902
405.2000	73.1994
405.1000	73.2094
405.0000	73.2174
404.9000	73.2374
404.8000	73.259
404.7000	73.276
404.6000	73.2992
404.5000	73.324
404.4000	73.3403
404.3000	73.3648
404.2000	73.3773
404.1000	73.3989
404.0000	73.4222
403.9000	73.4372
403.8000	73.4558
403.7000	73.4642
403.6000	73.4751
403.5000	73.4834
403.4000	73.4918
403.3000	73.4935
403.2000	73.4953
403.1000	73.498
403.0000	73.4936
402.9000	73.4841
402.8000	73.4791
402.7000	73.4684
402.6000	73.4646
402.5000	73.4544
402.4000	73.4424
402.3000	73.4326
402.2000	73.4209
402.1000	73.4104
402.0000	73.3998
401.9000	73.39
401.8000	73.3833
401.7000	73.3753
401.6000	73.3677
401.5000	73.3641
401.4000	73.3626
401.3000	73.3653
401.2000	73.369
401.1000	73.37
401.0000	73.3733
400.9000	73.3808
400.8000	73.3834
400.7000	73.3888
400.6000	73.4005
400.5000	73.4147
400.4000	73.4211
400.3000	73.425
400.2000	73.4318
400.1000	73.4419
400.0000	73.4479
399.9000	73.4488
399.8000	73.4507
399.7000	73.4463
399.6000	73.4401
399.5000	73.443
399.4000	73.4407
399.3000	73.4337
399.2000	73.43
399.1000	73.4219
399.0000	73.4099
398.9000	73.3904
398.8000	73.3765
398.7000	73.3629
398.6000	73.3456
398.5000	73.3221
398.4000	73.3064
398.3000	73.2831
398.2000	73.259
398.1000	73.2438
398.0000	73.2242
397.9000	73.2045
397.8000	73.186
397.7000	73.1628
397.6000	73.1414
397.5000	73.1291
397.4000	73.1119
397.3000	73.1009
397.2000	73.0878
397.1000	73.0747
397.0000	73.0639
396.9000	73.0523
396.8000	73.0394
396.7000	73.0318
396.6000	73.0219
396.5000	73.012
396.4000	72.9969
396.3000	72.9788
396.2000	72.9618
396.1000	72.9488
396.0000	72.9346
395.9000	72.9057
395.8000	72.8854
395.7000	72.8579
395.6000	72.836
395.5000	72.808
395.4000	72.7791
395.3000	72.7562
395.2000	72.7273
395.1000	72.7007
395.0000	72.672
394.9000	72.6343
394.8000	72.6023
394.7000	72.5719
394.6000	72.5416
394.5000	72.506
394.4000	72.4733
394.3000	72.4463
394.2000	72.4135
394.1000	72.3844
394.0000	72.3512
393.9000	72.3255
393.8000	72.2944
393.7000	72.2638
393.6000	72.2322
393.5000	72.2029
393.4000	72.1817
393.3000	72.1542
393.2000	72.134
393.1000	72.1069
393.0000	72.076
392.9000	72.0512
392.8000	72.024
392.7000	71.9936
392.6000	71.965
392.5000	71.941
392.4000	71.9127
392.3000	71.8826
392.2000	71.8574
392.1000	71.8329
392.0000	71.8119
391.9000	71.7796
391.8000	71.7448
391.7000	71.7167
391.6000	71.6866
391.5000	71.6646
391.4000	71.6404
391.3000	71.6122
391.2000	71.5875
391.1000	71.5559
391.0000	71.5273
390.9000	71.4933
390.8000	71.4628
390.7000	71.4342
390.6000	71.399
390.5000	71.3566
390.4000	71.3189
390.3000	71.2866
390.2000	71.2518
390.1000	71.2202
390.0000	71.1804
389.9000	71.1397
389.8000	71.099
389.7000	71.0664
389.6000	71.0212
389.5000	70.9857
389.4000	70.9487
389.3000	70.9135
389.2000	70.8798
389.1000	70.8416
389.0000	70.8032
388.9000	70.7672
388.8000	70.7252
388.7000	70.6883
388.6000	70.6496
388.5000	70.6076
388.4000	70.5676
388.3000	70.5255
388.2000	70.4902
388.1000	70.4449
388.0000	70.4037
387.9000	70.3615
387.8000	70.3182
387.7000	70.2749
387.6000	70.2312
387.5000	70.1862
387.4000	70.1509
387.3000	70.1025
387.2000	70.0596
387.1000	70.0121
387.0000	69.9615
386.9000	69.9144
386.8000	69.8655
386.7000	69.8138
386.6000	69.7549
386.5000	69.7037
386.4000	69.6564
386.3000	69.6081
386.2000	69.5546
386.1000	69.5044
386.0000	69.4482
385.9000	69.3934
385.8000	69.3272
385.7000	69.2793
385.6000	69.2276
385.5000	69.1724
385.4000	69.1248
385.3000	69.077
385.2000	69.0217
385.1000	68.9672
385.0000	68.9162
384.9000	68.8611
384.8000	68.8045
384.7000	68.7496
384.6000	68.6969
384.5000	68.6361
384.4000	68.5761
384.3000	68.5176
384.2000	68.4573
384.1000	68.399
384.0000	68.3337
383.9000	68.2709
383.8000	68.2005
383.7000	68.1272
383.6000	68.0598
383.5000	67.9917
383.4000	67.9253
383.3000	67.8516
383.2000	67.7782
383.1000	67.7008
383.0000	67.6292
382.9000	67.5595
382.8000	67.4846
382.7000	67.4085
382.6000	67.3362
382.5000	67.2587
382.4000	67.1841
382.3000	67.1055
382.2000	67.0343
382.1000	66.9578
382.0000	66.88
381.9000	66.8002
381.8000	66.7178
381.7000	66.636
381.6000	66.5542
381.5000	66.4705
381.4000	66.3739
381.3000	66.2809
381.2000	66.1945
381.1000	66.1041
381.0000	66.0132
380.9000	65.9186
380.8000	65.8256
380.7000	65.7289
380.6000	65.6297
380.5000	65.5288
380.4000	65.4291
380.3000	65.3314
380.2000	65.2337
380.1000	65.1384
380.0000	65.035
379.9000	64.9338
379.8000	64.8344
379.7000	64.7311
379.6000	64.6272
379.5000	64.5216
379.4000	64.4203
379.3000	64.3123
379.2000	64.1942
379.1000	64.0791
379.0000	63.9653
378.9000	63.8473
378.8000	63.7272
378.7000	63.6058
378.6000	63.4806
378.5000	63.355
378.4000	63.2303
378.3000	63.1061
378.2000	62.9749
378.1000	62.8429
378.0000	62.7049
377.9000	62.5661
377.8000	62.4238
377.7000	62.2839
377.6000	62.146
377.5000	62.0106
377.4000	61.8638
377.3000	61.7217
377.2000	61.5718
377.1000	61.4158
377.0000	61.2598
376.9000	61.1024
376.8000	60.9426
376.7000	60.7765
376.6000	60.6131
376.5000	60.4436
376.4000	60.2721
376.3000	60.0965
376.2000	59.9161
376.1000	59.7313
376.0000	59.5449
375.9000	59.3504
375.8000	59.1514
375.7000	58.9459
375.6000	58.7494
375.5000	58.5431
375.4000	58.3312
375.3000	58.1142
375.2000	57.8912
375.1000	57.6583
375.0000	57.4272
374.9000	57.1899
374.8000	56.9476
374.7000	56.6963
374.6000	56.4372
374.5000	56.1758
374.4000	55.9082
374.3000	55.6314
374.2000	55.3591
374.1000	55.0729
374.0000	54.7667
373.9000	54.4571
373.8000	54.1429
373.7000	53.8205
373.6000	53.4878
373.5000	53.1525
373.4000	52.8046
373.3000	52.4469
373.2000	52.0764
373.1000	51.702
373.0000	51.3194
372.9000	50.9264
372.8000	50.5208
372.7000	50.1064
372.6000	49.679
372.5000	49.2529
372.4000	48.8184
372.3000	48.3803
372.2000	47.9283
372.1000	47.4632
372.0000	46.9863
371.9000	46.4978
371.8000	45.9961
371.7000	45.499
371.6000	44.9898
371.5000	44.4685
371.4000	43.9346
371.3000	43.3889
371.2000	42.8368
371.1000	42.2789
371.0000	41.7052
370.9000	41.1243
370.8000	40.5358
370.7000	39.937
370.6000	39.3226
370.5000	38.6994
370.4000	38.0779
370.3000	37.4491
370.2000	36.8185
370.1000	36.1679
370.0000	33.0086
369.9000	32.3488
369.8000	31.6867
369.7000	31.0196
369.6000	30.3461
369.5000	29.6711
369.4000	28.9971
369.3000	28.3213
369.2000	27.6473
369.1000	26.9637
369.0000	26.283
368.9000	25.5952
368.8000	24.9108
368.7000	24.2265
368.6000	23.5491
368.5000	22.8751
368.4000	22.2007
368.3000	21.5321
368.2000	20.8696
368.1000	20.2133
368.0000	19.5654
367.9000	18.9225
367.8000	18.284
367.7000	17.655
367.6000	17.0288
367.5000	16.4166
367.4000	15.8096
367.3000	15.219
367.2000	14.6408
367.1000	14.0728
367.0000	13.5093
366.9000	12.9582
366.8000	12.4238
366.7000	11.8993
366.6000	11.3842
366.5000	10.8811
366.4000	10.3875
366.3000	9.90985
366.2000	9.44421
366.1000	8.98996
366.0000	8.55035
365.9000	8.12194
365.8000	7.70649
365.7000	7.30514
365.6000	6.91643
365.5000	6.53987
365.4000	6.17654
365.3000	5.82744
365.2000	5.4885
365.1000	5.16542
365.0000	4.85407
364.9000	4.55521
364.8000	4.27007
364.7000	3.99641
364.6000	3.73411
364.5000	3.48395
364.4000	3.24416
364.3000	3.01698
364.2000	2.80251
364.1000	2.59766
364.0000	2.40182
363.9000	2.21641
363.8000	2.0429
363.7000	1.87778
363.6000	1.72259
363.5000	1.57626
363.4000	1.43987
363.3000	1.31223
363.2000	1.19369
363.1000	1.0834
363.0000	0.980002
362.9000	0.884127
362.8000	0.796337
362.7000	0.714846
362.6000	0.640279
362.5000	0.571553
362.4000	0.509036
362.3000	0.451924
362.2000	0.399781
362.1000	0.353264
362.0000	0.310856
361.9000	0.272654
361.8000	0.238115
361.7000	0.207588
361.6000	0.180256
361.5000	0.156093
361.4000	0.134998
361.3000	0.116304
361.2000	0.0996929
361.1000	0.0851561
361.0000	0.0725417
360.9000	0.0618837
360.8000	0.0525659
360.7000	0.0444374
360.6000	0.0377025
360.5000	0.031956
360.4000	0.0271283
360.3000	0.0231414
360.2000	0.0198
360.1000	0.0169589
360.0000	0.0146379
359.9000	0.0127411
359.8000	0.0111414
359.7000	0.00984213
359.6000	0.0088159
359.5000	0.00801473
359.4000	0.00731452
359.3000	0.00661591
359.2000	0.00614095
359.1000	0.00578951
359.0000	0.00539059
358.9000	0.00506487
358.8000	0.00476413
358.7000	0.00448746
358.6000	0.00428664
358.5000	0.00413624
358.4000	0.00396054
358.3000	0.00380966
358.2000	0.00375731
358.1000	0.00365524
358.0000	0.00355598
357.9000	0.00338087
357.8000	0.00323445
357.7000	0.00320976
357.6000	0.00311171
357.5000	0.00296574
357.4000	0.00296509
357.3000	0.00291621
357.2000	0.00286729
357.1000	0.00281872
357.0000	0.00274524
356.9000	0.00272021
356.8000	0.00269568
356.7000	0.00259816
356.6000	0.00247635
356.5000	0.0024526
356.4000	0.00237875
356.3000	0.00230558
356.2000	0.0023055
356.1000	0.00218274
356.0000	0.00215821
355.9000	0.00210915
355.8000	0.0020355
355.7000	0.00201114
355.6000	0.0019382
355.5000	0.00188917
355.4000	0.00181609
355.3000	0.00181594
355.2000	0.00171801
355.1000	0.00174217
355.0000	0.00171784
354.9000	0.00169348
354.8000	0.00169275
354.7000	0.00174147
354.6000	0.001644
354.5000	0.0016199
354.4000	0.001596
354.3000	0.0016201
354.2000	0.00159549
354.1000	0.00157122
354.0000	0.00159553
353.9000	0.00162062
353.8000	0.00159634
353.7000	0.00147399
353.6000	0.00145023
353.5000	0.00140169
353.4000	0.0013772
353.3000	0.00130345
353.2000	0.00123049
353.1000	0.00113248
353.0000	0.00113247
352.9000	0.00108339
352.8000	0.00105836
352.7000	0.00103361
352.6000	0.00103368
352.5000	0.000935979
352.4000	0.000887289
352.3000	0.000862927
352.2000	0.000837816
352.1000	0.000788813
352.0000	0.000763575
351.9000	0.000763233
351.8000	0.000788718
351.7000	0.000764342
351.6000	0.000739746
351.5000	0.000812634
351.4000	0.000788197
351.3000	0.000813229
351.2000	0.000812968
351.1000	0.00081304
351.0000	0.000837226
350.9000	0.000812126
350.8000	0.000836612
350.7000	0.000811599
350.6000	0.000836639
350.5000	0.000934684
350.4000	0.000959581
350.3000	0.000911037
350.2000	0.000812422
350.1000	0.000860888
350.0000	0.000885393
349.9000	0.000788076
349.8000	0.000788024
349.7000	0.000689914
349.6000	0.000715129
349.5000	0.000641503
349.4000	0.000593057
349.3000	0.00064195
349.2000	0.000592622
349.1000	0.000543262
349.0000	0.000592316
348.9000	0.00054336
348.8000	0.000494647
348.7000	0.000446163
348.6000	0.000445564
348.5000	0.000421394
348.4000	0.000446054
348.3000	0.000495108
348.2000	0.000495501
348.1000	0.000593422
348.0000	0.000494768
347.9000	0.000543716
347.8000	0.000518628
347.7000	0.000469842
347.6000	0.000494328
347.5000	0.000495439
347.4000	0.000495015
347.3000	0.000519747
347.2000	0.000616884
347.1000	0.000665035
347.0000	0.000665994
346.9000	0.000641644
346.8000	0.000592792
346.7000	0.000543449
346.6000	0.000518365
346.5000	0.000543047
346.4000	0.000568241
346.3000	0.000519794
346.2000	0.000544317
346.1000	0.00059343
346.0000	0.000568533
345.9000	0.000518967
345.8000	0.000470048
345.7000	0.000421068
345.6000	0.000347964
345.5000	0.000323372
345.4000	0.000347317
345.3000	0.000371868
345.2000	0.00037148
345.1000	0.000420279
345.0000	0.000395863
344.9000	0.000322282
344.8000	0.000272284
344.7000	0.000247436
344.6000	0.000198839
344.5000	0.000174162
344.4000	0.000174296
344.3000	0.000198629
344.2000	0.000198826
344.1000	0.000173979
344.0000	0.000149434
343.9000	0.000198163
343.8000	0.000173512
343.7000	0.000197656
343.6000	0.000247093
343.5000	0.000271941
343.4000	0.000272056
343.3000	0.000296146
343.2000	0.0003702
343.1000	0.000419196
343.0000	0.000467872
342.9000	0.000492401
342.8000	0.000541397
342.7000	0.000565825
342.6000	0.000516899
342.5000	0.000541588
342.4000	0.000541418
342.3000	0.000517608
342.2000	0.000517543
342.1000	0.000566561
342.0000	0.000541898
341.9000	0.000492843
341.8000	0.000541798
341.7000	0.000590963
341.6000	0.000566556
341.5000	0.000517947
341.4000	0.000542639
341.3000	0.000519053
341.2000	0.000469739
341.1000	0.00044538
341.0000	0.000543199
340.9000	0.00054362
340.8000	0.000568338
340.7000	0.00049436
340.6000	0.000519176
340.5000	0.000420847
340.4000	0.000396418
340.3000	0.000396531
340.2000	0.000371696
340.1000	0.000322241
340.0000	0.00869717
339.9000	0.00874601
339.8000	0.00867144
339.7000	0.00867133
339.6000	0.00864477
339.5000	0.0085442
339.4000	0.00844518
339.3000	0.0084439
339.2000	0.00839474
339.1000	0.00844156
339.0000	0.00846444
338.9000	0.00839188
338.8000	0.00834203
338.7000	0.00829101
338.6000	0.00838669
338.5000	0.00836036
338.4000	0.00821294
338.3000	0.00811517
338.2000	0.00808928
338.1000	0.00806396
338.0000	0.00799146
337.9000	0.00796634
337.8000	0.00799031
337.7000	0.00791661
337.6000	0.00793837
337.5000	0.00788852
337.4000	0.00783691
337.3000	0.00778514
337.2000	0.00771027
337.1000	0.00766144
337.0000	0.00761256
336.9000	0.00761212
336.8000	0.00763567
336.7000	0.00758532
336.6000	0.00743607
336.5000	0.0073619
336.4000	0.00740933
336.3000	0.00743513
336.2000	0.00738509
336.1000	0.00738425
336.0000	0.0074095
335.9000	0.00750552
335.8000	0.00747977
335.7000	0.00743162
335.6000	0.00745481
335.5000	0.00750261
335.4000	0.00745349
335.3000	0.00745342
335.2000	0.00737994
335.1000	0.00735536
335.0000	0.00745298
334.9000	0.00750202
334.8000	0.00740169
334.7000	0.00735124
334.6000	0.00734864
334.5000	0.00737249
334.4000	0.00732345
334.3000	0.00725058
334.2000	0.00722624
334.1000	0.00722517
334.0000	0.00720101
333.9000	0.0070783
333.8000	0.00705163
333.7000	0.00692579
333.6000	0.0069255
333.5000	0.0069006
333.4000	0.00685119
333.3000	0.00682501
333.2000	0.00682585
333.1000	0.00672732
333.0000	0.00667869
332.9000	0.00662789
332.8000	0.00667542
332.7000	0.0066761
332.6000	0.00662582
332.5000	0.00662521
332.4000	0.00667229
332.3000	0.00669485
332.2000	0.00666962
332.1000	0.0066701
332.0000	0.0066434
331.9000	0.00666607
331.8000	0.00671324
331.7000	0.00663958
331.6000	0.00666287
331.5000	0.0066387
331.4000	0.006589
331.3000	0.00653998
331.2000	0.00646602
331.1000	0.00646415
331.0000	0.00643988
330.9000	0.00646352
330.8000	0.00641484
330.7000	0.00631618
330.6000	0.00633975
330.5000	0.00633965
330.4000	0.00624246
330.3000	0.00624094
330.2000	0.00624115
330.1000	0.00623891
330.0000	0.00621258
329.9000	0.00625874
329.8000	0.00630861
329.7000	0.00625937
329.6000	0.0062351
329.5000	0.00618564
329.4000	0.00620876
329.3000	0.0061326
329.2000	0.00603441
329.1000	0.00613226
329.0000	0.00613363
328.9000	0.00615725
328.8000	0.00620308
328.7000	0.00612989
328.6000	0.00603223
328.5000	0.00605782
328.4000	0.00603249
328.3000	0.00603296
328.2000	0.00598186
328.1000	0.00595732
328.0000	0.00595657
327.9000	0.00595583
327.8000	0.00595617
327.7000	0.00593328
327.6000	0.00597918
327.5000	0.00593048
327.4000	0.00587964
327.3000	0.00585417
327.2000	0.00587967
327.1000	0.00585569
327.0000	0.00592993
326.9000	0.00585602
326.8000	0.00590568
326.7000	0.00585657
326.6000	0.00580822
326.5000	0.00580707
326.4000	0.00573233
326.3000	0.00570673
326.2000	0.00565766
326.1000	0.00565734
326.0000	0.00563348
325.9000	0.00563164
325.8000	0.00562964
325.7000	0.00562927
325.6000	0.00565328
325.5000	0.00565331
325.4000	0.00560063
325.3000	0.00564873
325.2000	0.00559846
325.1000	0.00559587
325.0000	0.00561727
324.9000	0.00569103
324.8000	0.00571621
324.7000	0.00566783
324.6000	0.00571531
324.5000	0.00564076
324.4000	0.00559108
324.3000	0.00564085
324.2000	0.005617
324.1000	0.0055184
324.0000	0.00547156
323.9000	0.00547012
323.8000	0.00547155
323.7000	0.00544508
323.6000	0.00534715
323.5000	0.00527501
323.4000	0.00527819
323.3000	0.00520423
323.2000	0.00520152
323.1000	0.00522465
323.0000	0.00512789
322.9000	0.00512824
322.8000	0.00512829
322.7000	0.00507868
322.6000	0.00510229
322.5000	0.00507625
322.4000	0.00500039
322.3000	0.00495067
322.2000	0.00477939
322.1000	0.00473017
322.0000	0.00475454
321.9000	0.00470326
321.8000	0.00465163
321.7000	0.00457855
321.6000	0.00455488
321.5000	0.00450436
321.4000	0.00447762
321.3000	0.00447617
321.2000	0.00440301
321.1000	0.00437853
321.0000	0.0044048
320.9000	0.00448069
320.8000	0.00450438
320.7000	0.00448038
320.6000	0.00455351
320.5000	0.00452987
320.4000	0.00453006
320.3000	0.00457993
320.2000	0.00462804
320.1000	0.00465188
320.0000	0.00455489
319.9000	0.00450719
319.8000	0.00450566
319.7000	0.00445748
319.6000	0.00448232
319.5000	0.00448216
319.4000	0.00438223
319.3000	0.00435539
319.2000	0.00438066
319.1000	0.00435621
319.0000	0.00433164
318.9000	0.00428153
318.8000	0.00425648
318.7000	0.00423117
318.6000	0.00415875
318.5000	0.00420745
318.4000	0.00427981
318.3000	0.00430495
318.2000	0.0043064
318.1000	0.00435609
318.0000	0.00435463
317.9000	0.00432934
317.8000	0.00430584
317.7000	0.00423196
317.6000	0.00413206
317.5000	0.00415565
317.4000	0.00422812
317.3000	0.00418107
317.2000	0.0042047
317.1000	0.00425471
317.0000	0.00420643
316.9000	0.0041329
316.8000	0.00406079
316.7000	0.00401101
316.6000	0.00403464
316.5000	0.0039835
316.4000	0.0040086
316.3000	0.00401016
316.2000	0.00400891
316.1000	0.00398545
316.0000	0.0039382
315.9000	0.00391418
315.8000	0.00379068
315.7000	0.00381431
315.6000	0.00376636
315.5000	0.00369426
315.4000	0.00369231
315.3000	0.0037407
315.2000	0.00376218
315.1000	0.00371233
315.0000	0.00369008
314.9000	0.00374069
314.8000	0.00373925
314.7000	0.00371332
314.6000	0.00364093
314.5000	0.00366702
314.4000	0.00376443
314.3000	0.00378803
314.2000	0.00386225
314.1000	0.00383818
314.0000	0.00378761
313.9000	0.00373617
313.8000	0.00378525
313.7000	0.00373399
313.6000	0.00373569
313.5000	0.00376111
313.4000	0.00378447
313.3000	0.00383371
313.2000	0.0037114
313.1000	0.00370938
313.0000	0.00380601
312.9000	0.00380383
312.8000	0.00375367
312.7000	0.00370519
312.6000	0.00370379
312.5000	0.00375085
312.4000	0.00380001
312.3000	0.00382335
312.2000	0.0038478
312.1000	0.00387395
312.0000	0.00384643
311.9000	0.00384501
311.8000	0.00367769
311.7000	0.00355661
311.6000	0.0035808
311.5000	0.00355695
311.4000	0.00358046
311.3000	0.00360368
311.2000	0.00365184
311.1000	0.00360386
311.0000	0.00360387
310.9000	0.00360418
310.8000	0.00357981
310.7000	0.00355567
310.6000	0.00350828
310.5000	0.00341222
310.4000	0.00341293
310.3000	0.00343656
310.2000	0.00348307
310.1000	0.00350723
310.0000	0.00348243
309.9000	0.00350557
309.8000	0.0033387
309.7000	0.00336287
309.6000	0.0033144
309.5000	0.00336109
309.4000	0.00333706
309.3000	0.00328871
309.2000	0.00314487
309.1000	0.00314438
309.0000	0.00316753
308.9000	0.00321512
308.8000	0.00323838
308.7000	0.00326189
308.6000	0.00323816
308.5000	0.00323744
308.4000	0.00326115
308.3000	0.00316589
308.2000	0.00318889
308.1000	0.00309238
308.0000	0.00306843
307.9000	0.00306843
307.8000	0.00306792
307.7000	0.0030672
307.6000	0.00316269
307.5000	0.0032107
307.4000	0.00321021
307.3000	0.00313831
307.2000	0.0030661
307.1000	0.00301822
307.0000	0.00306552
306.9000	0.0030654
306.8000	0.00301774
306.7000	0.00301761
306.6000	0.00304162
306.5000	0.00304143
306.4000	0.00304058
306.3000	0.00301597
306.2000	0.00289678
306.1000	0.00287312
306.0000	0.00282503
305.9000	0.00275252
305.8000	0.00270505
305.7000	0.00277607
305.6000	0.00282346
305.5000	0.00279947
305.4000	0.00275169
305.3000	0.00270408
305.2000	0.00272693
305.1000	0.00275036
305.0000	0.00267828
304.9000	0.00274964
304.8000	0.00272593
304.7000	0.0026786
304.6000	0.002702
304.5000	0.00272507
304.4000	0.00277189
304.3000	0.00279605
304.2000	0.00274816
304.1000	0.00269987
304.0000	0.00260441
303.9000	0.00258033
303.8000	0.00260393
303.7000	0.00258026
303.6000	0.00260359
303.5000	0.00255563
303.4000	0.002627
303.3000	0.00253203
303.2000	0.00250737
303.1000	0.00255484
303.0000	0.00255483
302.9000	0.00250705
302.8000	0.00250708
302.7000	0.00250621
302.6000	0.00252916
302.5000	0.00255307
302.4000	0.00260113
302.3000	0.0026013
302.2000	0.00260036
302.1000	0.00259904
302.0000	0.00264689
301.9000	0.00269462
301.8000	0.00267088
301.7000	0.00274118
301.6000	0.00276524
301.5000	0.00276471
301.4000	0.00276388
301.3000	0.00283598
301.2000	0.00281222
301.1000	0.00281238
301.0000	0.00278832
300.9000	0.00276432
300.8000	0.0027164
300.7000	0.00276302
300.6000	0.00281093
300.5000	0.00281094
300.4000	0.00271561
300.3000	0.00271535
300.2000	0.00271526
300.1000	0.00257297
300.0000	0.00252474
299.9000	0.00247696
299.8000	0.00247726
299.7000	0.0023816
299.6000	0.00238141
299.5000	0.00228666
299.4000	0.00221516
299.3000	0.00211991
299.2000	0.00211989
299.1000	0.00202459
299.0000	0.00192954
298.9000	0.00190617
298.8000	0.00195357
298.7000	0.0019769
298.6000	0.00197666
298.5000	0.00207124
298.4000	0.00209484
298.3000	0.00214196
298.2000	0.00214211
298.1000	0.00221233
298.0000	0.00221253
297.9000	0.00228375
297.8000	0.00235514
297.7000	0.00242592
297.6000	0.00244957
297.5000	0.00247431
297.4000	0.00252153
297.3000	0.00252081
297.2000	0.0024736
297.1000	0.00240177
297.0000	0.00242557
296.9000	0.00237845
296.8000	0.0023785
296.7000	0.00230709
296.6000	0.00230706
296.5000	0.00226009
296.4000	0.00225964
296.3000	0.00223534
296.2000	0.00228266
296.1000	0.00228315
296.0000	0.00223508
295.9000	0.00221017
295.8000	0.00220967
295.7000	0.00223387
295.6000	0.00221042
295.5000	0.00213937
295.4000	0.00211457
295.3000	0.0021143
295.2000	0.0021617
295.1000	0.00218611
295.0000	0.00223301
294.9000	0.00220957
294.8000	0.00211466
294.7000	0.00213914
294.6000	0.00211507
294.5000	0.00209121
294.4000	0.00209094
294.3000	0.00213862
294.2000	0.00211628
294.1000	0.00204507
294.0000	0.00199684
293.9000	0.00204437
293.8000	0.00206801
293.7000	0.00206773
293.6000	0.00199628
293.5000	0.00199593
293.4000	0.00190105
293.3000	0.00187706
293.2000	0.00190041
293.1000	0.00190015
293.0000	0.00187711
292.9000	0.00192402
292.8000	0.0019953
292.7000	0.00197179
292.6000	0.00194716
292.5000	0.00197066
292.4000	0.00206572
292.3000	0.00208927
292.2000	0.00204202
292.1000	0.00204177
292.0000	0.00201824
291.9000	0.00197091
291.8000	0.00197039
291.7000	0.0019704
291.6000	0.00197101
291.5000	0.00192281
291.4000	0.00187465
291.3000	0.00185118
291.2000	0.00180393
291.1000	0.00175728
291.0000	0.0017337
290.9000	0.00175733
290.8000	0.00166238
290.7000	0.0015914
290.6000	0.00161569
290.5000	0.00163966
290.4000	0.00168712
290.3000	0.00175834
290.2000	0.00180657
290.1000	0.00178228
290.0000	0.0018052
289.9000	0.00180566
289.8000	0.00180552
289.7000	0.00178208
289.6000	0.001782
289.5000	0.00178097
289.4000	0.00178063
289.3000	0.00175695
289.2000	0.00180395
289.1000	0.00185114
289.0000	0.00182731
288.9000	0.00177953
288.8000	0.00173202
288.7000	0.00166102
288.6000	0.00158961
288.5000	0.00158974
288.4000	0.00154247
288.3000	0.00151861
288.2000	0.00154237
288.1000	0.00149466
288.0000	0.0014711
287.9000	0.00147143
287.8000	0.00149504
287.7000	0.00149457
287.6000	0.00144763
287.5000	0.0014481
287.4000	0.00142433
287.3000	0.00140097
287.2000	0.00142485
287.1000	0.0014006
287.0000	0.00144727
286.9000	0.00147095
286.8000	0.00149547
286.7000	0.00151945
286.6000	0.00149581
286.5000	0.00144842
286.4000	0.00147118
286.3000	0.00151764
286.2000	0.00147011
286.1000	0.0014946
286.0000	0.00149472
285.9000	0.0014469
285.8000	0.00149363
285.7000	0.0015174
285.6000	0.00154047
285.5000	0.00156436
285.4000	0.00149438
285.3000	0.0015185
285.2000	0.00151809
285.1000	0.00144605
285.0000	0.00144631
284.9000	0.00151682
284.8000	0.00151769
284.7000	0.00147128
284.6000	0.00149567
284.5000	0.00147165
284.4000	0.00149508
284.3000	0.00151859
284.2000	0.00147159
284.1000	0.00147154
284.0000	0.00142482
283.9000	0.00142443
283.8000	0.00144762
283.7000	0.00139931
283.6000	0.00139926
283.5000	0.00149451
283.4000	0.00151841
283.3000	0.00154291
283.2000	0.00151905
283.1000	0.00151844
283.0000	0.00154154
282.9000	0.00149393
282.8000	0.00151715
282.7000	0.00146961
282.6000	0.00146947
282.5000	0.00149315
282.4000	0.00151654
282.3000	0.00149341
282.2000	0.00149349
282.1000	0.00151785
282.0000	0.00154147
281.9000	0.00147049
281.8000	0.00146984
281.7000	0.00149332
281.6000	0.00144668
281.5000	0.00144703
281.4000	0.0014228
281.3000	0.00144637
281.2000	0.00147094
281.1000	0.00151853
281.0000	0.00142391
280.9000	0.00142383
280.8000	0.00137637
280.7000	0.00132878
280.6000	0.00132834
280.5000	0.00130406
280.4000	0.00125625
280.3000	0.00128028
280.2000	0.00123328
280.1000	0.00113807
280.0000	0.00116072
279.9000	0.0012081
279.8000	0.00120856
279.7000	0.0011851
279.6000	0.00108972
279.5000	0.0010662
279.4000	0.00111289
279.3000	0.00111213
279.2000	0.00111183
279.1000	0.00120618
279.0000	0.00120667
278.9000	0.00120728
278.8000	0.00113597
278.7000	0.00115928
278.6000	0.00118233
278.5000	0.0012296
278.4000	0.00123025
278.3000	0.00118269
278.2000	0.00113471
278.1000	0.00113425
278.0000	0.0011819
277.9000	0.00118157
277.8000	0.00122952
277.7000	0.00118301
277.6000	0.00120668
277.5000	0.00113535
277.4000	0.00118173
277.3000	0.00115783
277.2000	0.00125381
277.1000	0.00120666
277.0000	0.00120705
276.9000	0.00118352
276.8000	0.00118305
276.7000	0.00108851
276.6000	0.00111249
276.5000	0.00118424
276.4000	0.00116003
276.3000	0.00120694
276.2000	0.00118311
276.1000	0.00118317
276.0000	0.00113627
275.9000	0.00113663
275.8000	0.00111347
275.7000	0.00113691
275.6000	0.00111183
275.5000	0.00111146
275.4000	0.00106427
275.3000	0.0010885
275.2000	0.0011121
275.1000	0.00118271
275.0000	0.00122989
274.9000	0.00125298
274.8000	0.00122938
274.7000	0.00118235
274.6000	0.00122926
274.5000	0.00122932
274.4000	0.0012294
274.3000	0.0012531
274.2000	0.0012057
274.1000	0.0012292
274.0000	0.00122943
273.9000	0.00127638
273.8000	0.00134684
273.7000	0.00129887
273.6000	0.00129891
273.5000	0.00134642
273.4000	0.00129864
273.3000	0.00122716
273.2000	0.00118009
273.1000	0.00118026
273.0000	0.00115616
272.9000	0.0011787
272.8000	0.0012257
272.7000	0.00120219
272.6000	0.00124985
272.5000	0.00122654
272.4000	0.00125086
272.3000	0.00120393
272.2000	0.00113321
272.1000	0.00113312
272.0000	0.00115642
271.9000	0.0010848
271.8000	0.00103806
271.7000	0.00101515
271.6000	0.00108527
271.5000	0.00110875
271.4000	0.00106163
271.3000	0.00101501
271.2000	0.000991
271.1000	0.00106129
271.0000	0.0011078
270.9000	0.00110799
270.8000	0.00106046
270.7000	0.00105988
270.6000	0.00108272
270.5000	0.00110612
270.4000	0.00105896
270.3000	0.00108321
270.2000	0.00117753
270.1000	0.0012241
270.0000	0.00120125
269.9000	0.0011778
269.8000	0.00120231
269.7000	0.00117857
269.6000	0.0011787
269.5000	0.00115554
269.4000	0.00106134
269.3000	0.00108445
269.2000	0.00110801
269.1000	0.00115534
269.0000	0.00113242
268.9000	0.00110905
268.8000	0.0011092
268.7000	0.00110883
268.6000	0.00103843
268.5000	0.00099117
268.4000	0.00103877
268.3000	0.00103844
268.2000	0.00101406
268.1000	0.00101413
268.0000	0.00101432
267.9000	0.000967256
267.8000	0.000990802
267.7000	0.000944019
267.6000	0.000943748
267.5000	0.000873233
267.4000	0.000920123
267.3000	0.000919943
267.2000	0.000920618
267.1000	0.000920954
267.0000	0.000920658
266.9000	0.000990762
266.8000	0.000966544
266.7000	0.000966812
266.6000	0.000943632
266.5000	0.00096741
266.4000	0.000967471
266.3000	0.000990272
266.2000	0.000966262
266.1000	0.000965808
266.0000	0.000965979
265.9000	0.00098969
265.8000	0.00094282
265.7000	0.000990327
265.6000	0.000989335
265.5000	0.00101276
265.4000	0.00101252
265.3000	0.000966434
265.2000	0.000942878
265.1000	0.000918765
265.0000	0.000965747
264.9000	0.00096567
264.8000	0.000942211
264.7000	0.000942859
264.6000	0.000943635
264.5000	0.000943652
264.4000	0.000919901
264.3000	0.000919934
264.2000	0.000943428
264.1000	0.000966815
264.0000	0.000967206
263.9000	0.00094364
263.8000	0.000967242
263.7000	0.000966747
263.6000	0.00101384
263.5000	0.00101451
263.4000	0.00101541
263.3000	0.00103906
263.2000	0.00101494
263.1000	0.000991306
263.0000	0.000990795
262.9000	0.00101467
262.8000	0.00101505
262.7000	0.00101534
262.6000	0.000991819
262.5000	0.000921079
262.4000	0.000873349
262.3000	0.000896836
262.2000	0.000850015
262.1000	0.000826401
262.0000	0.000803096
261.9000	0.000826473
261.8000	0.000849258
261.7000	0.000824886
261.6000	0.000895685
261.5000	0.000871922
261.4000	0.000872115
261.3000	0.000919381
261.2000	0.000966642
261.1000	0.000918679
261.0000	0.000894897
260.9000	0.000894968
260.8000	0.000942964
260.7000	0.000872157
260.6000	0.000918522
260.5000	0.000895118
260.4000	0.000870939
260.3000	0.000870969
260.2000	0.00082384
260.1000	0.000847784
260.0000	0.000824506
259.9000	0.000871881
259.8000	0.000871972
259.7000	0.000800847
259.6000	0.000776238
259.5000	0.000823921
259.4000	0.000848119
259.3000	0.00084822
259.2000	0.000800704
259.1000	0.0008947
259.0000	0.000895587
258.9000	0.000942978
258.8000	0.000967044
258.7000	0.000966537
258.6000	0.000966652
258.5000	0.000966812
258.4000	0.000943
258.3000	0.000966546
258.2000	0.00101417
258.1000	0.00101435
258.0000	0.000944465
257.9000	0.000944331
257.8000	0.00099142
257.7000	0.00101464
257.6000	0.0010612
257.5000	0.000990712
257.4000	0.00101465
257.3000	0.000967585
257.2000	0.000920175
257.1000	0.000896906
257.0000	0.000920538
256.9000	0.000967704
256.8000	0.00101525
256.7000	0.000968114
256.6000	0.000920278
256.5000	0.000920032
256.4000	0.000966801
256.3000	0.00101385
256.2000	0.00096646
256.1000	0.000919946
256.0000	0.000873287
255.9000	0.000850082
255.8000	0.000849439
255.7000	0.000872339
255.6000	0.000943251
255.5000	0.000943247
255.4000	0.000943661
255.3000	0.000872682
255.2000	0.00082541
255.1000	0.000824947
255.0000	0.000825049
254.9000	0.000825409
254.8000	0.000825461
254.7000	0.000754477
254.6000	0.000778341
254.5000	0.000825716
254.4000	0.000920242
254.3000	0.000967809
254.2000	0.00094437
254.1000	0.000969073
254.0000	0.000898882
253.9000	0.000922786
253.8000	0.000946124
253.7000	0.000970525
253.6000	0.00097041
253.5000	0.00101806
253.4000	0.00104241
253.3000	0.00106635
253.2000	0.00104315
253.1000	0.00104327
253.0000	0.00109029
252.9000	0.00109012
252.8000	0.00104306
252.7000	0.00104288
252.6000	0.0010431
252.5000	0.00104249
252.4000	0.00108949
252.3000	0.0010657
252.2000	0.00104226
252.1000	0.00108964
252.0000	0.00113711
251.9000	0.00109008
251.8000	0.00108958
251.7000	0.00106562
251.6000	0.00113625
251.5000	0.00120769
251.4000	0.00120804
251.3000	0.00118429
251.2000	0.00116032
251.1000	0.0011367
251.0000	0.00116056
250.9000	0.0011607
250.8000	0.00113664
250.7000	0.00123111
250.6000	0.00125507
250.5000	0.00120735
250.4000	0.00118385
250.3000	0.00118413
250.2000	0.0011599
250.1000	0.00118327
250.0000	0.0011364
