TITLE	13.4_NP_0
DATA TYPE	ULTRAVIOLET SPECTRUM
ORIGIN	JASCO
OWNER	
DATE	21/05/03
TIME	15:51:46
SPECTROMETER/DATA SYSTEM	
RESOLUTION	
DELTAX	-0.1
XUNITS	NANOMETERS
YUNITS	TRANSMITTANCE
FIRSTX	  850.0000
LASTX	  250.0000
NPOINTS	    6001
FIRSTY	    79.97961
MAXY	    82.98487
MINY	     0.00079
XYDATA
850.0000	79.9796
849.9000	80.0929
849.8000	80.2018
849.7000	80.2955
849.6000	80.3986
849.5000	80.5018
849.4000	80.6084
849.3000	80.7099
849.2000	80.8083
849.1000	80.9052
849.0000	81.0005
848.9000	81.0888
848.8000	81.1605
848.7000	81.2498
848.6000	81.3322
848.5000	81.403
848.4000	81.4839
848.3000	81.5616
848.2000	81.648
848.1000	81.7245
848.0000	81.8081
847.9000	81.8912
847.8000	81.9562
847.7000	82.0284
847.6000	82.0959
847.5000	82.1616
847.4000	82.2252
847.3000	82.3018
847.2000	82.3751
847.1000	82.4425
847.0000	82.4951
846.9000	82.5499
846.8000	82.6043
846.7000	82.652
846.6000	82.6896
846.5000	82.7418
846.4000	82.7759
846.3000	82.8125
846.2000	82.8553
846.1000	82.8742
846.0000	82.8979
845.9000	82.9231
845.8000	82.9407
845.7000	82.9533
845.6000	82.9583
845.5000	82.9649
845.4000	82.9744
845.3000	82.9825
845.2000	82.9849
845.1000	82.9812
845.0000	82.9746
844.9000	82.9642
844.8000	82.9493
844.7000	82.9387
844.6000	82.9072
844.5000	82.8869
844.4000	82.8577
844.3000	82.8326
844.2000	82.8063
844.1000	82.7663
844.0000	82.7311
843.9000	82.6928
843.8000	82.6537
843.7000	82.6089
843.6000	82.5571
843.5000	82.504
843.4000	82.4567
843.3000	82.3947
843.2000	82.3435
843.1000	82.2808
843.0000	82.2298
842.9000	82.1626
842.8000	82.1042
842.7000	82.0271
842.6000	81.9553
842.5000	81.8822
842.4000	81.8051
842.3000	81.7303
842.2000	81.6507
842.1000	81.572
842.0000	81.4891
841.9000	81.3996
841.8000	81.3078
841.7000	81.2214
841.6000	81.1202
841.5000	81.0188
841.4000	80.9176
841.3000	80.8295
841.2000	80.7266
841.1000	80.6242
841.0000	80.5134
840.9000	80.4107
840.8000	80.2978
840.7000	80.1866
840.6000	80.0797
840.5000	79.9627
840.4000	79.8544
840.3000	79.7418
840.2000	79.6379
840.1000	79.5171
840.0000	79.4107
839.9000	79.2897
839.8000	79.1678
839.7000	79.0411
839.6000	78.9175
839.5000	78.7998
839.4000	78.6797
839.3000	78.5572
839.2000	78.4392
839.1000	78.3085
839.0000	78.1839
838.9000	78.0535
838.8000	77.9222
838.7000	77.7979
838.6000	77.6562
838.5000	77.5339
838.4000	77.4023
838.3000	77.284
838.2000	77.1539
838.1000	77.0252
838.0000	76.9007
837.9000	76.7642
837.8000	76.643
837.7000	76.52
837.6000	76.4037
837.5000	76.289
837.4000	76.1579
837.3000	76.0478
837.2000	75.9335
837.1000	75.8171
837.0000	75.7093
836.9000	75.5954
836.8000	75.4854
836.7000	75.3714
836.6000	75.2663
836.5000	75.1567
836.4000	75.0489
836.3000	74.958
836.2000	74.8492
836.1000	74.7562
836.0000	74.6556
835.9000	74.5549
835.8000	74.4673
835.7000	74.3682
835.6000	74.2713
835.5000	74.1784
835.4000	74.0877
835.3000	74.0049
835.2000	73.9248
835.1000	73.8494
835.0000	73.7734
834.9000	73.7023
834.8000	73.63
834.7000	73.552
834.6000	73.4877
834.5000	73.4058
834.4000	73.3397
834.3000	73.2753
834.2000	73.2135
834.1000	73.1538
834.0000	73.1054
833.9000	73.0555
833.8000	72.9964
833.7000	72.9518
833.6000	72.8919
833.5000	72.8407
833.4000	72.7947
833.3000	72.7503
833.2000	72.7164
833.1000	72.6818
833.0000	72.6427
832.9000	72.6177
832.8000	72.5876
832.7000	72.5647
832.6000	72.5402
832.5000	72.5248
832.4000	72.501
832.3000	72.4887
832.2000	72.4897
832.1000	72.475
832.0000	72.4755
831.9000	72.471
831.8000	72.4759
831.7000	72.477
831.6000	72.4809
831.5000	72.4885
831.4000	72.505
831.3000	72.518
831.2000	72.5328
831.1000	72.5463
831.0000	72.57
830.9000	72.5976
830.8000	72.6311
830.7000	72.6628
830.6000	72.6941
830.5000	72.7332
830.4000	72.7701
830.3000	72.8098
830.2000	72.8513
830.1000	72.8964
830.0000	72.9395
829.9000	72.9909
829.8000	73.041
829.7000	73.1009
829.6000	73.1546
829.5000	73.2151
829.4000	73.282
829.3000	73.3407
829.2000	73.4028
829.1000	73.4747
829.0000	73.5462
828.9000	73.6127
828.8000	73.6921
828.7000	73.7723
828.6000	73.856
828.5000	73.9496
828.4000	74.0328
828.3000	74.118
828.2000	74.2117
828.1000	74.3032
828.0000	74.4038
827.9000	74.5053
827.8000	74.6044
827.7000	74.7051
827.6000	74.8069
827.5000	74.9017
827.4000	75.0014
827.3000	75.1122
827.2000	75.2212
827.1000	75.334
827.0000	75.4391
826.9000	75.5441
826.8000	75.6642
826.7000	75.7784
826.6000	75.8917
826.5000	76.0084
826.4000	76.1303
826.3000	76.2519
826.2000	76.3607
826.1000	76.4768
826.0000	76.5951
825.9000	76.7179
825.8000	76.8462
825.7000	76.9654
825.6000	77.0857
825.5000	77.2064
825.4000	77.3387
825.3000	77.4733
825.2000	77.5957
825.1000	77.7213
825.0000	77.8451
824.9000	77.967
824.8000	78.0868
824.7000	78.2091
824.6000	78.3406
824.5000	78.4667
824.4000	78.5905
824.3000	78.7193
824.2000	78.8339
824.1000	78.9611
824.0000	79.0826
823.9000	79.2069
823.8000	79.3176
823.7000	79.4266
823.6000	79.5457
823.5000	79.657
823.4000	79.7698
823.3000	79.884
823.2000	79.996
823.1000	80.1048
823.0000	80.2128
822.9000	80.3178
822.8000	80.4211
822.7000	80.5203
822.6000	80.6342
822.5000	80.7292
822.4000	80.8273
822.3000	80.9175
822.2000	81.0139
822.1000	81.1066
822.0000	81.195
821.9000	81.291
821.8000	81.3727
821.7000	81.4559
821.6000	81.5385
821.5000	81.615
821.4000	81.6945
821.3000	81.7723
821.2000	81.8437
821.1000	81.9111
821.0000	81.9653
820.9000	82.0282
820.8000	82.0833
820.7000	82.1499
820.6000	82.2029
820.5000	82.2578
820.4000	82.3051
820.3000	82.3435
820.2000	82.3886
820.1000	82.4199
820.0000	82.4617
819.9000	82.5025
819.8000	82.5226
819.7000	82.5519
819.6000	82.5752
819.5000	82.596
819.4000	82.6138
819.3000	82.6242
819.2000	82.6394
819.1000	82.6292
819.0000	82.6292
818.9000	82.6222
818.8000	82.6203
818.7000	82.6113
818.6000	82.5995
818.5000	82.5906
818.4000	82.5625
818.3000	82.5318
818.2000	82.5038
818.1000	82.4674
818.0000	82.4307
817.9000	82.3869
817.8000	82.348
817.7000	82.3035
817.6000	82.2524
817.5000	82.2057
817.4000	82.1492
817.3000	82.0854
817.2000	82.0208
817.1000	81.9622
817.0000	81.8979
816.9000	81.8222
816.8000	81.7448
816.7000	81.6722
816.6000	81.5927
816.5000	81.517
816.4000	81.4389
816.3000	81.354
816.2000	81.2632
816.1000	81.1737
816.0000	81.0821
815.9000	80.9876
815.8000	80.8913
815.7000	80.7974
815.6000	80.6975
815.5000	80.5911
815.4000	80.4817
815.3000	80.3698
815.2000	80.2655
815.1000	80.1521
815.0000	80.0337
814.9000	79.916
814.8000	79.7972
814.7000	79.6767
814.6000	79.5546
814.5000	79.4276
814.4000	79.3012
814.3000	79.1822
814.2000	79.0523
814.1000	78.9225
814.0000	78.7888
813.9000	78.6586
813.8000	78.5327
813.7000	78.4005
813.6000	78.2643
813.5000	78.1353
813.4000	78.0076
813.3000	77.8715
813.2000	77.7373
813.1000	77.6068
813.0000	77.4695
812.9000	77.3421
812.8000	77.2066
812.7000	77.0684
812.6000	76.9382
812.5000	76.8049
812.4000	76.6696
812.3000	76.5298
812.2000	76.3963
812.1000	76.2742
812.0000	76.1467
811.9000	76.0127
811.8000	75.8848
811.7000	75.7644
811.6000	75.636
811.5000	75.5136
811.4000	75.3953
811.3000	75.269
811.2000	75.15
811.1000	75.0334
811.0000	74.9206
810.9000	74.8058
810.8000	74.6932
810.7000	74.5841
810.6000	74.4769
810.5000	74.3623
810.4000	74.2519
810.3000	74.1411
810.2000	74.0323
810.1000	73.924
810.0000	73.8233
809.9000	73.7201
809.8000	73.6231
809.7000	73.5321
809.6000	73.4415
809.5000	73.3452
809.4000	73.2545
809.3000	73.1729
809.2000	73.0896
809.1000	73.0167
809.0000	72.9324
808.9000	72.8598
808.8000	72.7882
808.7000	72.7167
808.6000	72.6554
808.5000	72.5926
808.4000	72.5322
808.3000	72.4726
808.2000	72.4128
808.1000	72.3605
808.0000	72.3091
807.9000	72.2546
807.8000	72.2064
807.7000	72.1586
807.6000	72.1191
807.5000	72.0782
807.4000	72.0443
807.3000	72.0201
807.2000	71.9958
807.1000	71.9743
807.0000	71.956
806.9000	71.9396
806.8000	71.921
806.7000	71.9135
806.6000	71.9115
806.5000	71.9017
806.4000	71.9013
806.3000	71.9164
806.2000	71.9218
806.1000	71.9368
806.0000	71.9521
805.9000	71.9653
805.8000	71.9859
805.7000	71.9995
805.6000	72.0195
805.5000	72.0531
805.4000	72.0809
805.3000	72.1073
805.2000	72.1471
805.1000	72.1843
805.0000	72.2298
804.9000	72.276
804.8000	72.3234
804.7000	72.3718
804.6000	72.4273
804.5000	72.4822
804.4000	72.5423
804.3000	72.612
804.2000	72.6779
804.1000	72.7458
804.0000	72.8178
803.9000	72.8898
803.8000	72.9667
803.7000	73.0509
803.6000	73.1416
803.5000	73.2225
803.4000	73.3079
803.3000	73.4022
803.2000	73.4928
803.1000	73.5871
803.0000	73.6776
802.9000	73.7741
802.8000	73.8802
802.7000	73.9766
802.6000	74.0811
802.5000	74.1914
802.4000	74.3039
802.3000	74.4138
802.2000	74.5295
802.1000	74.6477
802.0000	74.7622
801.9000	74.8882
801.8000	75.0059
801.7000	75.123
801.6000	75.2469
801.5000	75.3743
801.4000	75.512
801.3000	75.6401
801.2000	75.7632
801.1000	75.8923
801.0000	76.0274
800.9000	76.1532
800.8000	76.2801
800.7000	76.4185
800.6000	76.5472
800.5000	76.68
800.4000	76.8058
800.3000	76.9362
800.2000	77.0649
800.1000	77.1988
800.0000	77.3269
799.9000	77.456
799.8000	77.5878
799.7000	77.7167
799.6000	77.8465
799.5000	77.9838
799.4000	78.1082
799.3000	78.2488
799.2000	78.379
799.1000	78.5039
799.0000	78.6338
798.9000	78.7579
798.8000	78.8875
798.7000	79.0119
798.6000	79.1429
798.5000	79.2646
798.4000	79.3915
798.3000	79.5084
798.2000	79.6222
798.1000	79.74
798.0000	79.8512
797.9000	79.9609
797.8000	80.0726
797.7000	80.1696
797.6000	80.2704
797.5000	80.369
797.4000	80.4635
797.3000	80.5627
797.2000	80.6588
797.1000	80.7553
797.0000	80.8376
796.9000	80.9302
796.8000	81.0124
796.7000	81.0949
796.6000	81.1655
796.5000	81.2444
796.4000	81.32
796.3000	81.3873
796.2000	81.4458
796.1000	81.5094
796.0000	81.5727
795.9000	81.6244
795.8000	81.6756
795.7000	81.7148
795.6000	81.7541
795.5000	81.78
795.4000	81.8186
795.3000	81.8425
795.2000	81.8633
795.1000	81.8814
795.0000	81.9045
794.9000	81.9118
794.8000	81.9189
794.7000	81.9222
794.6000	81.9212
794.5000	81.9215
794.4000	81.911
794.3000	81.8991
794.2000	81.8883
794.1000	81.8741
794.0000	81.8554
793.9000	81.8381
793.8000	81.8057
793.7000	81.7697
793.6000	81.7378
793.5000	81.6976
793.4000	81.6513
793.3000	81.6004
793.2000	81.5495
793.1000	81.4954
793.0000	81.4386
792.9000	81.3691
792.8000	81.3032
792.7000	81.238
792.6000	81.1658
792.5000	81.0845
792.4000	81.0008
792.3000	80.913
792.2000	80.8249
792.1000	80.7379
792.0000	80.6445
791.9000	80.5509
791.8000	80.4551
791.7000	80.3598
791.6000	80.2538
791.5000	80.1391
791.4000	80.0366
791.3000	79.9297
791.2000	79.8098
791.1000	79.69
791.0000	79.5682
790.9000	79.4549
790.8000	79.3358
790.7000	79.2144
790.6000	79.0807
790.5000	78.951
790.4000	78.8218
790.3000	78.6919
790.2000	78.5535
790.1000	78.4158
790.0000	78.2824
789.9000	78.1472
789.8000	78.0009
789.7000	77.857
789.6000	77.7223
789.5000	77.5844
789.4000	77.4376
789.3000	77.2843
789.2000	77.1405
789.1000	76.9969
789.0000	76.8589
788.9000	76.7126
788.8000	76.5668
788.7000	76.4205
788.6000	76.28
788.5000	76.1369
788.4000	75.9897
788.3000	75.8469
788.2000	75.7095
788.1000	75.5744
788.0000	75.4393
787.9000	75.2982
787.8000	75.1671
787.7000	75.0333
787.6000	74.8941
787.5000	74.7553
787.4000	74.6255
787.3000	74.4984
787.2000	74.3668
787.1000	74.2375
787.0000	74.1132
786.9000	73.9849
786.8000	73.8613
786.7000	73.7424
786.6000	73.6269
786.5000	73.5145
786.4000	73.3885
786.3000	73.2727
786.2000	73.1647
786.1000	73.0606
786.0000	72.9514
785.9000	72.8578
785.8000	72.7607
785.7000	72.6671
785.6000	72.5706
785.5000	72.4808
785.4000	72.3866
785.3000	72.3076
785.2000	72.2285
785.1000	72.1513
785.0000	72.071
784.9000	71.9911
784.8000	71.9263
784.7000	71.8643
784.6000	71.7933
784.5000	71.7321
784.4000	71.6856
784.3000	71.6256
784.2000	71.5691
784.1000	71.5118
784.0000	71.4701
783.9000	71.4279
783.8000	71.3906
783.7000	71.3527
783.6000	71.3195
783.5000	71.2926
783.4000	71.2723
783.3000	71.2549
783.2000	71.234
783.1000	71.214
783.0000	71.2046
782.9000	71.1923
782.8000	71.1821
782.7000	71.1807
782.6000	71.1836
782.5000	71.1939
782.4000	71.206
782.3000	71.2222
782.2000	71.2382
782.1000	71.2601
782.0000	71.2841
781.9000	71.3094
781.8000	71.3387
781.7000	71.3691
781.6000	71.4145
781.5000	71.4572
781.4000	71.503
781.3000	71.5558
781.2000	71.609
781.1000	71.6607
781.0000	71.7133
780.9000	71.7699
780.8000	71.8347
780.7000	71.8995
780.6000	71.9682
780.5000	72.0444
780.4000	72.126
780.3000	72.2068
780.2000	72.2854
780.1000	72.3701
780.0000	72.4541
779.9000	72.5475
779.8000	72.6451
779.7000	72.7424
779.6000	72.8382
779.5000	72.9463
779.4000	73.0624
779.3000	73.1738
779.2000	73.2836
779.1000	73.3991
779.0000	73.5251
778.9000	73.6412
778.8000	73.7579
778.7000	73.8789
778.6000	74.0054
778.5000	74.131
778.4000	74.2626
778.3000	74.3932
778.2000	74.5263
778.1000	74.661
778.0000	74.7966
777.9000	74.9309
777.8000	75.0653
777.7000	75.2093
777.6000	75.3427
777.5000	75.4776
777.4000	75.6137
777.3000	75.751
777.2000	75.8965
777.1000	76.035
777.0000	76.1722
776.9000	76.3169
776.8000	76.4595
776.7000	76.5966
776.6000	76.7372
776.5000	76.8771
776.4000	77.0213
776.3000	77.1627
776.2000	77.2987
776.1000	77.4342
776.0000	77.5742
775.9000	77.7136
775.8000	77.8484
775.7000	77.9856
775.6000	78.1131
775.5000	78.2448
775.4000	78.3836
775.3000	78.5059
775.2000	78.6256
775.1000	78.7495
775.0000	78.861
774.9000	78.9795
774.8000	79.0904
774.7000	79.2053
774.6000	79.3149
774.5000	79.4232
774.4000	79.5354
774.3000	79.636
774.2000	79.7383
774.1000	79.8356
774.0000	79.9356
773.9000	80.0325
773.8000	80.1147
773.7000	80.2106
773.6000	80.2947
773.5000	80.3827
773.4000	80.4628
773.3000	80.536
773.2000	80.6131
773.1000	80.68
773.0000	80.751
772.9000	80.8096
772.8000	80.8646
772.7000	80.9192
772.6000	80.971
772.5000	81.01
772.4000	81.0432
772.3000	81.0748
772.2000	81.105
772.1000	81.1246
772.0000	81.1467
771.9000	81.1597
771.8000	81.1803
771.7000	81.1832
771.6000	81.1877
771.5000	81.1851
771.4000	81.1746
771.3000	81.1672
771.2000	81.1528
771.1000	81.1359
771.0000	81.1114
770.9000	81.093
770.8000	81.0653
770.7000	81.0328
770.6000	80.9955
770.5000	80.9538
770.4000	80.91
770.3000	80.8565
770.2000	80.7919
770.1000	80.7349
770.0000	80.6683
769.9000	80.6025
769.8000	80.5323
769.7000	80.4584
769.6000	80.3788
769.5000	80.2953
769.4000	80.2065
769.3000	80.1149
769.2000	80.0173
769.1000	79.9239
769.0000	79.8246
768.9000	79.7215
768.8000	79.6138
768.7000	79.506
768.6000	79.3985
768.5000	79.2887
768.4000	79.1735
768.3000	79.0536
768.2000	78.9324
768.1000	78.8074
768.0000	78.6753
767.9000	78.5452
767.8000	78.416
767.7000	78.2803
767.6000	78.1472
767.5000	78.0068
767.4000	77.8676
767.3000	77.7293
767.2000	77.5892
767.1000	77.4459
767.0000	77.3009
766.9000	77.1591
766.8000	77.0052
766.7000	76.8554
766.6000	76.7064
766.5000	76.5613
766.4000	76.421
766.3000	76.2745
766.2000	76.1258
766.1000	75.9778
766.0000	75.8296
765.9000	75.6764
765.8000	75.5304
765.7000	75.382
765.6000	75.2294
765.5000	75.086
765.4000	74.9437
765.3000	74.7964
765.2000	74.6585
765.1000	74.5141
765.0000	74.3688
764.9000	74.2274
764.8000	74.0837
764.7000	73.9419
764.6000	73.8001
764.5000	73.659
764.4000	73.5259
764.3000	73.3967
764.2000	73.2622
764.1000	73.1269
764.0000	73.0042
763.9000	72.8719
763.8000	72.7459
763.7000	72.6209
763.6000	72.4992
763.5000	72.3866
763.4000	72.2758
763.3000	72.1613
763.2000	72.0511
763.1000	71.9463
763.0000	71.8423
762.9000	71.7455
762.8000	71.6532
762.7000	71.5608
762.6000	71.4743
762.5000	71.3938
762.4000	71.3105
762.3000	71.2364
762.2000	71.1622
762.1000	71.0956
762.0000	71.0302
761.9000	70.9692
761.8000	70.9113
761.7000	70.8544
761.6000	70.8044
761.5000	70.7595
761.4000	70.7149
761.3000	70.6813
761.2000	70.6411
761.1000	70.6144
761.0000	70.5861
760.9000	70.5611
760.8000	70.5425
760.7000	70.5291
760.6000	70.5181
760.5000	70.5085
760.4000	70.503
760.3000	70.504
760.2000	70.5063
760.1000	70.5159
760.0000	70.5314
759.9000	70.5456
759.8000	70.5718
759.7000	70.5917
759.6000	70.6163
759.5000	70.6461
759.4000	70.6816
759.3000	70.7229
759.2000	70.7674
759.1000	70.8118
759.0000	70.8623
758.9000	70.9185
758.8000	70.9807
758.7000	71.0357
758.6000	71.1004
758.5000	71.1698
758.4000	71.2382
758.3000	71.316
758.2000	71.394
758.1000	71.4825
758.0000	71.5733
757.9000	71.662
757.8000	71.7576
757.7000	71.8528
757.6000	71.957
757.5000	72.0644
757.4000	72.1679
757.3000	72.2762
757.2000	72.3858
757.1000	72.5071
757.0000	72.6264
756.9000	72.7495
756.8000	72.8703
756.7000	72.9957
756.6000	73.1249
756.5000	73.2488
756.4000	73.3827
756.3000	73.5169
756.2000	73.6506
756.1000	73.788
756.0000	73.9228
755.9000	74.0597
755.8000	74.2049
755.7000	74.3482
755.6000	74.4948
755.5000	74.6349
755.4000	74.7794
755.3000	74.924
755.2000	75.0742
755.1000	75.2237
755.0000	75.3742
754.9000	75.531
754.8000	75.6768
754.7000	75.824
754.6000	75.975
754.5000	76.1255
754.4000	76.2724
754.3000	76.4138
754.2000	76.5627
754.1000	76.7095
754.0000	76.8532
753.9000	76.9982
753.8000	77.1473
753.7000	77.2883
753.6000	77.4309
753.5000	77.5676
753.4000	77.7027
753.3000	77.8299
753.2000	77.9676
753.1000	78.1
753.0000	78.2279
752.9000	78.3538
752.8000	78.4783
752.7000	78.6065
752.6000	78.7233
752.5000	78.8326
752.4000	78.9465
752.3000	79.0591
752.2000	79.16
752.1000	79.2679
752.0000	79.3675
751.9000	79.4627
751.8000	79.5541
751.7000	79.6392
751.6000	79.7206
751.5000	79.7992
751.4000	79.8735
751.3000	79.9407
751.2000	80.0043
751.1000	80.0645
751.0000	80.1212
750.9000	80.1773
750.8000	80.2247
750.7000	80.2688
750.6000	80.3076
750.5000	80.3364
750.4000	80.3614
750.3000	80.3848
750.2000	80.4044
750.1000	80.4245
750.0000	80.4284
749.9000	80.4357
749.8000	80.4323
749.7000	80.4276
749.6000	80.4201
749.5000	80.407
749.4000	80.3891
749.3000	80.3669
749.2000	80.339
749.1000	80.3008
749.0000	80.2641
748.9000	80.2207
748.8000	80.1682
748.7000	80.1129
748.6000	80.0544
748.5000	79.9874
748.4000	79.9241
748.3000	79.85
748.2000	79.7738
748.1000	79.6992
748.0000	79.6139
747.9000	79.5274
747.8000	79.4358
747.7000	79.3394
747.6000	79.2373
747.5000	79.1355
747.4000	79.0231
747.3000	78.9129
747.2000	78.8014
747.1000	78.6876
747.0000	78.5639
746.9000	78.4454
746.8000	78.3189
746.7000	78.1868
746.6000	78.059
746.5000	77.921
746.4000	77.7818
746.3000	77.6441
746.2000	77.5006
746.1000	77.3551
746.0000	77.2046
745.9000	77.058
745.8000	76.9084
745.7000	76.7513
745.6000	76.6031
745.5000	76.4482
745.4000	76.2915
745.3000	76.1308
745.2000	75.9732
745.1000	75.8159
745.0000	75.6551
744.9000	75.4959
744.8000	75.3374
744.7000	75.1743
744.6000	75.0121
744.5000	74.8498
744.4000	74.696
744.3000	74.5393
744.2000	74.3835
744.1000	74.2295
744.0000	74.0666
743.9000	73.9031
743.8000	73.7474
743.7000	73.5918
743.6000	73.4392
743.5000	73.289
743.4000	73.1394
743.3000	72.9949
743.2000	72.8487
743.1000	72.7032
743.0000	72.5608
742.9000	72.4233
742.8000	72.2878
742.7000	72.1474
742.6000	72.0189
742.5000	71.8945
742.4000	71.7744
742.3000	71.6609
742.2000	71.5483
742.1000	71.4393
742.0000	71.3282
741.9000	71.2267
741.8000	71.1262
741.7000	71.0276
741.6000	70.9341
741.5000	70.8438
741.4000	70.7583
741.3000	70.6755
741.2000	70.5968
741.1000	70.5236
741.0000	70.452
740.9000	70.3803
740.8000	70.3155
740.7000	70.2567
740.6000	70.1988
740.5000	70.1457
740.4000	70.102
740.3000	70.0559
740.2000	70.0175
740.1000	69.977
740.0000	69.8955
739.9000	69.8732
739.8000	69.8511
739.7000	69.839
739.6000	69.8249
739.5000	69.8198
739.4000	69.822
739.3000	69.8256
739.2000	69.8357
739.1000	69.8477
739.0000	69.8599
738.9000	69.8804
738.8000	69.9054
738.7000	69.9346
738.6000	69.97
738.5000	70.0087
738.4000	70.0509
738.3000	70.0921
738.2000	70.1376
738.1000	70.1874
738.0000	70.2483
737.9000	70.309
737.8000	70.3715
737.7000	70.444
737.6000	70.5157
737.5000	70.5935
737.4000	70.6792
737.3000	70.7657
737.2000	70.8547
737.1000	70.9448
737.0000	71.043
736.9000	71.1412
736.8000	71.2438
736.7000	71.3524
736.6000	71.4686
736.5000	71.5844
736.4000	71.7077
736.3000	71.8271
736.2000	71.9527
736.1000	72.079
736.0000	72.2061
735.9000	72.3372
735.8000	72.4684
735.7000	72.6057
735.6000	72.7469
735.5000	72.8918
735.4000	73.0328
735.3000	73.1786
735.2000	73.3277
735.1000	73.4763
735.0000	73.6284
734.9000	73.7821
734.8000	73.9281
734.7000	74.0801
734.6000	74.2385
734.5000	74.3959
734.4000	74.555
734.3000	74.71
734.2000	74.869
734.1000	75.0254
734.0000	75.1837
733.9000	75.3409
733.8000	75.4973
733.7000	75.6536
733.6000	75.8093
733.5000	75.9659
733.4000	76.1155
733.3000	76.2637
733.2000	76.4147
733.1000	76.5676
733.0000	76.709
732.9000	76.8501
732.8000	76.9917
732.7000	77.1336
732.6000	77.2684
732.5000	77.4008
732.4000	77.5258
732.3000	77.6511
732.2000	77.7762
732.1000	77.8969
732.0000	78.0114
731.9000	78.1244
731.8000	78.2354
731.7000	78.3455
731.6000	78.4497
731.5000	78.5494
731.4000	78.6473
731.3000	78.7414
731.2000	78.833
731.1000	78.9178
731.0000	79.0055
730.9000	79.0814
730.8000	79.157
730.7000	79.2285
730.6000	79.291
730.5000	79.3538
730.4000	79.4119
730.3000	79.4633
730.2000	79.5073
730.1000	79.5472
730.0000	79.5803
729.9000	79.6066
729.8000	79.6314
729.7000	79.651
729.6000	79.662
729.5000	79.6693
729.4000	79.6653
729.3000	79.6658
729.2000	79.6577
729.1000	79.6439
729.0000	79.6279
728.9000	79.6006
728.8000	79.5706
728.7000	79.5369
728.6000	79.5005
728.5000	79.4526
728.4000	79.4069
728.3000	79.3548
728.2000	79.2954
728.1000	79.2292
728.0000	79.1604
727.9000	79.0889
727.8000	79.0133
727.7000	78.9324
727.6000	78.8475
727.5000	78.7526
727.4000	78.6565
727.3000	78.5572
727.2000	78.4519
727.1000	78.3447
727.0000	78.2306
726.9000	78.1168
726.8000	77.9925
726.7000	77.8678
726.6000	77.7423
726.5000	77.6103
726.4000	77.4764
726.3000	77.3395
726.2000	77.1986
726.1000	77.0492
726.0000	76.9022
725.9000	76.754
725.8000	76.6
725.7000	76.4476
725.6000	76.2883
725.5000	76.1298
725.4000	75.9729
725.3000	75.8107
725.2000	75.6511
725.1000	75.49
725.0000	75.322
724.9000	75.1574
724.8000	74.9885
724.7000	74.8235
724.6000	74.6596
724.5000	74.4952
724.4000	74.3264
724.3000	74.1626
724.2000	73.9983
724.1000	73.8353
724.0000	73.6766
723.9000	73.5145
723.8000	73.3512
723.7000	73.1896
723.6000	73.0318
723.5000	72.875
723.4000	72.7207
723.3000	72.5667
723.2000	72.4229
723.1000	72.2719
723.0000	72.1241
722.9000	71.9805
722.8000	71.8425
722.7000	71.7039
722.6000	71.568
722.5000	71.4344
722.4000	71.308
722.3000	71.1827
722.2000	71.0584
722.1000	70.9387
722.0000	70.8238
721.9000	70.7128
721.8000	70.6077
721.7000	70.5048
721.6000	70.3993
721.5000	70.303
721.4000	70.2108
721.3000	70.1253
721.2000	70.043
721.1000	69.967
721.0000	69.8941
720.9000	69.8195
720.8000	69.75
720.7000	69.6868
720.6000	69.6342
720.5000	69.5894
720.4000	69.5373
720.3000	69.4924
720.2000	69.4533
720.1000	69.4182
720.0000	69.3935
719.9000	69.3697
719.8000	69.3516
719.7000	69.3368
719.6000	69.3263
719.5000	69.3221
719.4000	69.3213
719.3000	69.3352
719.2000	69.3508
719.1000	69.3672
719.0000	69.3912
718.9000	69.4153
718.8000	69.4536
718.7000	69.4957
718.6000	69.5367
718.5000	69.5815
718.4000	69.6315
718.3000	69.6884
718.2000	69.7491
718.1000	69.8101
718.0000	69.8781
717.9000	69.9479
717.8000	70.0298
717.7000	70.1076
717.6000	70.1885
717.5000	70.277
717.4000	70.3669
717.3000	70.4622
717.2000	70.5601
717.1000	70.661
717.0000	70.7714
716.9000	70.8889
716.8000	71.0058
716.7000	71.1229
716.6000	71.244
716.5000	71.3736
716.4000	71.5043
716.3000	71.637
716.2000	71.7688
716.1000	71.9044
716.0000	72.0497
715.9000	72.1914
715.8000	72.3352
715.7000	72.4858
715.6000	72.6336
715.5000	72.7836
715.4000	72.9367
715.3000	73.09
715.2000	73.2441
715.1000	73.4039
715.0000	73.5628
714.9000	73.723
714.8000	73.8866
714.7000	74.0477
714.6000	74.2118
714.5000	74.3748
714.4000	74.5362
714.3000	74.7012
714.2000	74.8625
714.1000	75.023
714.0000	75.1887
713.9000	75.3534
713.8000	75.5102
713.7000	75.6674
713.6000	75.8222
713.5000	75.9762
713.4000	76.1249
713.3000	76.2732
713.2000	76.4228
713.1000	76.5696
713.0000	76.7069
712.9000	76.8549
712.8000	76.9884
712.7000	77.12
712.6000	77.2523
712.5000	77.3797
712.4000	77.5012
712.3000	77.6147
712.2000	77.7289
712.1000	77.8406
712.0000	77.9465
711.9000	78.044
711.8000	78.1475
711.7000	78.2406
711.6000	78.3233
711.5000	78.4051
711.4000	78.4865
711.3000	78.5487
711.2000	78.6162
711.1000	78.6794
711.0000	78.732
710.9000	78.7771
710.8000	78.8194
710.7000	78.856
710.6000	78.887
710.5000	78.9109
710.4000	78.9318
710.3000	78.9474
710.2000	78.9511
710.1000	78.9539
710.0000	78.9487
709.9000	78.9404
709.8000	78.9235
709.7000	78.9024
709.6000	78.8779
709.5000	78.8461
709.4000	78.8064
709.3000	78.763
709.2000	78.7092
709.1000	78.6546
709.0000	78.5919
708.9000	78.5206
708.8000	78.4461
708.7000	78.3678
708.6000	78.2853
708.5000	78.1943
708.4000	78.1001
708.3000	77.992
708.2000	77.8887
708.1000	77.7784
708.0000	77.656
707.9000	77.532
707.8000	77.4112
707.7000	77.2868
707.6000	77.1542
707.5000	77.0207
707.4000	76.8839
707.3000	76.75
707.2000	76.6063
707.1000	76.4619
707.0000	76.3108
706.9000	76.1553
706.8000	75.9992
706.7000	75.8496
706.6000	75.6873
706.5000	75.5268
706.4000	75.3687
706.3000	75.2067
706.2000	75.0408
706.1000	74.8738
706.0000	74.7067
705.9000	74.5368
705.8000	74.3664
705.7000	74.1912
705.6000	74.0207
705.5000	73.8484
705.4000	73.6758
705.3000	73.5075
705.2000	73.3407
705.1000	73.1713
705.0000	72.9997
704.9000	72.8356
704.8000	72.6709
704.7000	72.503
704.6000	72.3381
704.5000	72.1749
704.4000	72.0184
704.3000	71.8572
704.2000	71.7017
704.1000	71.5479
704.0000	71.3945
703.9000	71.2451
703.8000	71.0988
703.7000	70.9559
703.6000	70.8141
703.5000	70.6754
703.4000	70.5449
703.3000	70.4175
703.2000	70.2894
703.1000	70.1722
703.0000	70.0571
702.9000	69.9442
702.8000	69.838
702.7000	69.7369
702.6000	69.6387
702.5000	69.5492
702.4000	69.4633
702.3000	69.3801
702.2000	69.3044
702.1000	69.2338
702.0000	69.1666
701.9000	69.1068
701.8000	69.0551
701.7000	69.0002
701.6000	68.9551
701.5000	68.9168
701.4000	68.8808
701.3000	68.8515
701.2000	68.8267
701.1000	68.8097
701.0000	68.7965
700.9000	68.7867
700.8000	68.7875
700.7000	68.7916
700.6000	68.8033
700.5000	68.8151
700.4000	68.8395
700.3000	68.864
700.2000	68.894
700.1000	68.933
700.0000	68.9757
699.9000	69.0233
699.8000	69.0769
699.7000	69.1367
699.6000	69.1983
699.5000	69.2651
699.4000	69.3433
699.3000	69.423
699.2000	69.5067
699.1000	69.5985
699.0000	69.6905
698.9000	69.7924
698.8000	69.893
698.7000	70.0009
698.6000	70.1119
698.5000	70.2291
698.4000	70.353
698.3000	70.4736
698.2000	70.601
698.1000	70.7303
698.0000	70.8649
697.9000	71.0044
697.8000	71.1409
697.7000	71.2859
697.6000	71.4306
697.5000	71.5759
697.4000	71.7265
697.3000	71.8801
697.2000	72.0334
697.1000	72.1912
697.0000	72.3523
696.9000	72.5092
696.8000	72.6641
696.7000	72.8258
696.6000	72.9908
696.5000	73.1562
696.4000	73.3203
696.3000	73.4863
696.2000	73.6552
696.1000	73.8208
696.0000	73.9852
695.9000	74.1516
695.8000	74.3201
695.7000	74.484
695.6000	74.651
695.5000	74.8171
695.4000	74.9771
695.3000	75.1403
695.2000	75.302
695.1000	75.4612
695.0000	75.6158
694.9000	75.7719
694.8000	75.9277
694.7000	76.0751
694.6000	76.2209
694.5000	76.3676
694.4000	76.5124
694.3000	76.651
694.2000	76.7864
694.1000	76.9188
694.0000	77.0464
693.9000	77.1678
693.8000	77.2877
693.7000	77.405
693.6000	77.5187
693.5000	77.6313
693.4000	77.7351
693.3000	77.8325
693.2000	77.927
693.1000	78.0221
693.0000	78.1102
692.9000	78.1845
692.8000	78.2597
692.7000	78.3345
692.6000	78.3971
692.5000	78.4594
692.4000	78.516
692.3000	78.5682
692.2000	78.614
692.1000	78.6544
692.0000	78.6886
691.9000	78.7125
691.8000	78.735
691.7000	78.755
691.6000	78.7669
691.5000	78.7683
691.4000	78.7644
691.3000	78.7617
691.2000	78.7505
691.1000	78.7301
691.0000	78.7049
690.9000	78.6743
690.8000	78.6374
690.7000	78.5918
690.6000	78.5466
690.5000	78.4918
690.4000	78.4374
690.3000	78.376
690.2000	78.3065
690.1000	78.2266
690.0000	78.1464
689.9000	78.0633
689.8000	77.9751
689.7000	77.8815
689.6000	77.7765
689.5000	77.6717
689.4000	77.5617
689.3000	77.4452
689.2000	77.3207
689.1000	77.2022
689.0000	77.0757
688.9000	76.9472
688.8000	76.8079
688.7000	76.6664
688.6000	76.5259
688.5000	76.3834
688.4000	76.2336
688.3000	76.0815
688.2000	75.9267
688.1000	75.7697
688.0000	75.6153
687.9000	75.4551
687.8000	75.2948
687.7000	75.1348
687.6000	74.9756
687.5000	74.8064
687.4000	74.6391
687.3000	74.4706
687.2000	74.3068
687.1000	74.1446
687.0000	73.9738
686.9000	73.8092
686.8000	73.6448
686.7000	73.4845
686.6000	73.3205
686.5000	73.1568
686.4000	72.9957
686.3000	72.8365
686.2000	72.6795
686.1000	72.5224
686.0000	72.3683
685.9000	72.2216
685.8000	72.0731
685.7000	71.9299
685.6000	71.7879
685.5000	71.6482
685.4000	71.5188
685.3000	71.3875
685.2000	71.262
685.1000	71.1356
685.0000	71.0147
684.9000	70.9011
684.8000	70.7877
684.7000	70.6829
684.6000	70.5826
684.5000	70.4836
684.4000	70.3916
684.3000	70.2995
684.2000	70.2195
684.1000	70.1413
684.0000	70.0708
683.9000	70.0058
683.8000	69.9454
683.7000	69.8892
683.6000	69.8404
683.5000	69.7959
683.4000	69.7604
683.3000	69.7307
683.2000	69.7083
683.1000	69.6897
683.0000	69.6757
682.9000	69.6716
682.8000	69.6752
682.7000	69.6861
682.6000	69.6966
682.5000	69.7165
682.4000	69.7399
682.3000	69.7709
682.2000	69.8075
682.1000	69.8528
682.0000	69.9001
681.9000	69.9571
681.8000	70.0214
681.7000	70.0819
681.6000	70.1536
681.5000	70.2298
681.4000	70.3137
681.3000	70.3993
681.2000	70.4884
681.1000	70.5845
681.0000	70.6852
680.9000	70.7898
680.8000	70.8982
680.7000	71.0075
680.6000	71.1234
680.5000	71.2439
680.4000	71.3655
680.3000	71.4923
680.2000	71.6195
680.1000	71.7568
680.0000	71.8941
679.9000	72.0317
679.8000	72.1711
679.7000	72.319
679.6000	72.4637
679.5000	72.6111
679.4000	72.7628
679.3000	72.9127
679.2000	73.0661
679.1000	73.222
679.0000	73.3811
678.9000	73.5412
678.8000	73.705
678.7000	73.8647
678.6000	74.0267
678.5000	74.1912
678.4000	74.3527
678.3000	74.5145
678.2000	74.6771
678.1000	74.8335
678.0000	74.9978
677.9000	75.1553
677.8000	75.3081
677.7000	75.4655
677.6000	75.6186
677.5000	75.7762
677.4000	75.9227
677.3000	76.0674
677.2000	76.2085
677.1000	76.3515
677.0000	76.4882
676.9000	76.6247
676.8000	76.754
676.7000	76.8802
676.6000	76.9998
676.5000	77.1194
676.4000	77.2299
676.3000	77.3423
676.2000	77.453
676.1000	77.5525
676.0000	77.6485
675.9000	77.7361
675.8000	77.8214
675.7000	77.8988
675.6000	77.9747
675.5000	78.0384
675.4000	78.1031
675.3000	78.1553
675.2000	78.2065
675.1000	78.2508
675.0000	78.2909
674.9000	78.3205
674.8000	78.3466
674.7000	78.3649
674.6000	78.3754
674.5000	78.3786
674.4000	78.3767
674.3000	78.3641
674.2000	78.3511
674.1000	78.3272
674.0000	78.298
673.9000	78.2645
673.8000	78.2185
673.7000	78.1686
673.6000	78.1123
673.5000	78.0468
673.4000	77.9785
673.3000	77.9066
673.2000	77.8271
673.1000	77.7381
673.0000	77.6424
672.9000	77.5438
672.8000	77.4379
672.7000	77.3267
672.6000	77.2083
672.5000	77.0884
672.4000	76.9609
672.3000	76.8311
672.2000	76.6996
672.1000	76.5608
672.0000	76.4153
671.9000	76.2697
671.8000	76.1174
671.7000	75.9627
671.6000	75.8039
671.5000	75.645
671.4000	75.4852
671.3000	75.3237
671.2000	75.1612
671.1000	74.9966
671.0000	74.8288
670.9000	74.659
670.8000	74.4872
670.7000	74.3156
670.6000	74.1418
670.5000	73.9658
670.4000	73.796
670.3000	73.6259
670.2000	73.4582
670.1000	73.2831
670.0000	73.1148
669.9000	72.9436
669.8000	72.7771
669.7000	72.6072
669.6000	72.4431
669.5000	72.2789
669.4000	72.1204
669.3000	71.9676
669.2000	71.8142
669.1000	71.6621
669.0000	71.5129
668.9000	71.3703
668.8000	71.2281
668.7000	71.091
668.6000	70.9574
668.5000	70.8329
668.4000	70.7019
668.3000	70.5835
668.2000	70.4655
668.1000	70.3542
668.0000	70.2468
667.9000	70.1475
667.8000	70.0503
667.7000	69.956
667.6000	69.8706
667.5000	69.789
667.4000	69.7126
667.3000	69.6443
667.2000	69.5816
667.1000	69.5228
667.0000	69.4723
666.9000	69.4294
666.8000	69.3949
666.7000	69.3638
666.6000	69.3366
666.5000	69.3204
666.4000	69.3044
666.3000	69.2973
666.2000	69.299
666.1000	69.3041
666.0000	69.3169
665.9000	69.3376
665.8000	69.3644
665.7000	69.3945
665.6000	69.4323
665.5000	69.478
665.4000	69.5245
665.3000	69.5772
665.2000	69.6385
665.1000	69.704
665.0000	69.7792
664.9000	69.8584
664.8000	69.9455
664.7000	70.0339
664.6000	70.1308
664.5000	70.2337
664.4000	70.3407
664.3000	70.4526
664.2000	70.5705
664.1000	70.6911
664.0000	70.8176
663.9000	70.9485
663.8000	71.0855
663.7000	71.2242
663.6000	71.3684
663.5000	71.5117
663.4000	71.6608
663.3000	71.8139
663.2000	71.971
663.1000	72.1338
663.0000	72.2912
662.9000	72.4556
662.8000	72.6245
662.7000	72.7899
662.6000	72.962
662.5000	73.1419
662.4000	73.313
662.3000	73.4876
662.2000	73.6577
662.1000	73.8366
662.0000	74.0096
661.9000	74.1921
661.8000	74.3666
661.7000	74.5357
661.6000	74.7096
661.5000	74.8828
661.4000	75.0543
661.3000	75.2202
661.2000	75.3841
661.1000	75.5459
661.0000	75.706
660.9000	75.8586
660.8000	76.016
660.7000	76.1666
660.6000	76.3172
660.5000	76.4575
660.4000	76.6016
660.3000	76.7307
660.2000	76.8668
660.1000	76.9973
660.0000	77.1175
659.9000	77.2307
659.8000	77.3417
659.7000	77.4481
659.6000	77.5469
659.5000	77.6464
659.4000	77.7306
659.3000	77.8111
659.2000	77.8834
659.1000	77.9515
659.0000	78.0101
658.9000	78.0681
658.8000	78.1133
658.7000	78.156
658.6000	78.1825
658.5000	78.2081
658.4000	78.2294
658.3000	78.2454
658.2000	78.2506
658.1000	78.2484
658.0000	78.2378
657.9000	78.2204
657.8000	78.1964
657.7000	78.1674
657.6000	78.1302
657.5000	78.0891
657.4000	78.0406
657.3000	77.9807
657.2000	77.9137
657.1000	77.8462
657.0000	77.7687
656.9000	77.6875
656.8000	77.5946
656.7000	77.4979
656.6000	77.3977
656.5000	77.2921
656.4000	77.183
656.3000	77.0653
656.2000	76.9448
656.1000	76.8173
656.0000	76.6842
655.9000	76.5461
655.8000	76.4055
655.7000	76.2584
655.6000	76.1117
655.5000	75.9614
655.4000	75.8086
655.3000	75.6534
655.2000	75.4884
655.1000	75.3242
655.0000	75.159
654.9000	74.9873
654.8000	74.8162
654.7000	74.6455
654.6000	74.4732
654.5000	74.2952
654.4000	74.1238
654.3000	73.9455
654.2000	73.7718
654.1000	73.5976
654.0000	73.4268
653.9000	73.251
653.8000	73.0788
653.7000	72.9101
653.6000	72.7469
653.5000	72.5793
653.4000	72.4134
653.3000	72.2565
653.2000	72.0987
653.1000	71.9439
653.0000	71.7955
652.9000	71.6538
652.8000	71.51
652.7000	71.3728
652.6000	71.2411
652.5000	71.113
652.4000	70.9866
652.3000	70.8675
652.2000	70.756
652.1000	70.6438
652.0000	70.5405
651.9000	70.4435
651.8000	70.3526
651.7000	70.2651
651.6000	70.1858
651.5000	70.1099
651.4000	70.0407
651.3000	69.9762
651.2000	69.923
651.1000	69.877
651.0000	69.8357
650.9000	69.7974
650.8000	69.7687
650.7000	69.7462
650.6000	69.7275
650.5000	69.7172
650.4000	69.7183
650.3000	69.7229
650.2000	69.7328
650.1000	69.7513
650.0000	69.777
649.9000	69.8092
649.8000	69.8446
649.7000	69.8906
649.6000	69.9445
649.5000	70.0007
649.4000	70.0626
649.3000	70.1379
649.2000	70.2171
649.1000	70.3018
649.0000	70.3928
648.9000	70.4893
648.8000	70.5894
648.7000	70.6972
648.6000	70.8123
648.5000	70.9336
648.4000	71.0563
648.3000	71.1877
648.2000	71.3214
648.1000	71.4618
648.0000	71.6009
647.9000	71.7473
647.8000	71.8998
647.7000	72.0527
647.6000	72.2077
647.5000	72.3685
647.4000	72.5364
647.3000	72.7031
647.2000	72.8681
647.1000	73.0357
647.0000	73.2078
646.9000	73.379
646.8000	73.5537
646.7000	73.7242
646.6000	73.8999
646.5000	74.0746
646.4000	74.2496
646.3000	74.4278
646.2000	74.6021
646.1000	74.7787
646.0000	74.9525
645.9000	75.1243
645.8000	75.2893
645.7000	75.4561
645.6000	75.624
645.5000	75.7878
645.4000	75.946
645.3000	76.1019
645.2000	76.2537
645.1000	76.4046
645.0000	76.5477
644.9000	76.6894
644.8000	76.826
644.7000	76.9556
644.6000	77.0787
644.5000	77.1992
644.4000	77.3146
644.3000	77.4237
644.2000	77.5275
644.1000	77.626
644.0000	77.7186
643.9000	77.8032
643.8000	77.8859
643.7000	77.9556
643.6000	78.022
643.5000	78.0858
643.4000	78.1426
643.3000	78.1874
643.2000	78.2258
643.1000	78.2593
643.0000	78.2868
642.9000	78.3009
642.8000	78.3116
642.7000	78.3155
642.6000	78.3114
642.5000	78.2983
642.4000	78.2743
642.3000	78.2497
642.2000	78.2098
642.1000	78.169
642.0000	78.12
641.9000	78.059
641.8000	77.9924
641.7000	77.9144
641.6000	77.8399
641.5000	77.7513
641.4000	77.658
641.3000	77.5581
641.2000	77.4568
641.1000	77.3415
641.0000	77.2268
640.9000	77.1069
640.8000	76.9783
640.7000	76.8452
640.6000	76.7126
640.5000	76.5748
640.4000	76.4254
640.3000	76.2792
640.2000	76.1324
640.1000	75.9833
640.0000	75.8244
639.9000	75.6662
639.8000	75.503
639.7000	75.3434
639.6000	75.1733
639.5000	75.0113
639.4000	74.8444
639.3000	74.6767
639.2000	74.5106
639.1000	74.3421
639.0000	74.1732
638.9000	74.0038
638.8000	73.8392
638.7000	73.6717
638.6000	73.5057
638.5000	73.3418
638.4000	73.178
638.3000	73.019
638.2000	72.8669
638.1000	72.7133
638.0000	72.5641
637.9000	72.4138
637.8000	72.2693
637.7000	72.1269
637.6000	71.9935
637.5000	71.8619
637.4000	71.7351
637.3000	71.613
637.2000	71.4985
637.1000	71.3881
637.0000	71.2799
636.9000	71.1808
636.8000	71.0867
636.7000	70.9981
636.6000	70.9128
636.5000	70.8344
636.4000	70.7622
636.3000	70.6988
636.2000	70.6399
636.1000	70.5891
636.0000	70.5425
635.9000	70.5047
635.8000	70.4733
635.7000	70.454
635.6000	70.4348
635.5000	70.4233
635.4000	70.418
635.3000	70.4203
635.2000	70.4336
635.1000	70.4516
635.0000	70.4753
634.9000	70.5081
634.8000	70.5517
634.7000	70.5989
634.6000	70.655
634.5000	70.7168
634.4000	70.7837
634.3000	70.86
634.2000	70.9378
634.1000	71.0173
634.0000	71.1115
633.9000	71.2101
633.8000	71.3169
633.7000	71.4246
633.6000	71.5364
633.5000	71.6592
633.4000	71.7895
633.3000	71.9206
633.2000	72.0534
633.1000	72.1917
633.0000	72.3306
632.9000	72.4778
632.8000	72.6265
632.7000	72.7772
632.6000	72.9373
632.5000	73.1024
632.4000	73.2633
632.3000	73.4326
632.2000	73.6017
632.1000	73.7743
632.0000	73.9497
631.9000	74.1197
631.8000	74.288
631.7000	74.4612
631.6000	74.6331
631.5000	74.8078
631.4000	74.9856
631.3000	75.1573
631.2000	75.3337
631.1000	75.505
631.0000	75.6713
630.9000	75.8372
630.8000	76.0028
630.7000	76.1559
630.6000	76.3084
630.5000	76.4609
630.4000	76.6109
630.3000	76.7548
630.2000	76.8986
630.1000	77.0373
630.0000	77.1722
629.9000	77.2996
629.8000	77.4201
629.7000	77.5365
629.6000	77.6503
629.5000	77.758
629.4000	77.8582
629.3000	77.9502
629.2000	78.0375
629.1000	78.1217
629.0000	78.1997
628.9000	78.2699
628.8000	78.3259
628.7000	78.3832
628.6000	78.428
628.5000	78.464
628.4000	78.4937
628.3000	78.5171
628.2000	78.5353
628.1000	78.5463
628.0000	78.5418
627.9000	78.5299
627.8000	78.5129
627.7000	78.4913
627.6000	78.4582
627.5000	78.4228
627.4000	78.3767
627.3000	78.3236
627.2000	78.2681
627.1000	78.1973
627.0000	78.126
626.9000	78.0456
626.8000	77.9619
626.7000	77.87
626.6000	77.763
626.5000	77.6549
626.4000	77.5486
626.3000	77.4372
626.2000	77.3223
626.1000	77.1957
626.0000	77.0702
625.9000	76.9317
625.8000	76.7931
625.7000	76.6515
625.6000	76.5008
625.5000	76.3527
625.4000	76.1962
625.3000	76.0438
625.2000	75.8863
625.1000	75.7286
625.0000	75.57
624.9000	75.4085
624.8000	75.2412
624.7000	75.0783
624.6000	74.9093
624.5000	74.7445
624.4000	74.5752
624.3000	74.4115
624.2000	74.2493
624.1000	74.0859
624.0000	73.9285
623.9000	73.7736
623.8000	73.6206
623.7000	73.4669
623.6000	73.312
623.5000	73.1619
623.4000	73.0225
623.3000	72.8852
623.2000	72.7534
623.1000	72.6201
623.0000	72.4924
622.9000	72.3702
622.8000	72.2574
622.7000	72.1497
622.6000	72.043
622.5000	71.9459
622.4000	71.8504
622.3000	71.763
622.2000	71.6807
622.1000	71.6061
622.0000	71.543
621.9000	71.4843
621.8000	71.432
621.7000	71.3861
621.6000	71.3446
621.5000	71.3139
621.4000	71.2916
621.3000	71.2774
621.2000	71.2647
621.1000	71.2609
621.0000	71.2669
620.9000	71.277
620.8000	71.2976
620.7000	71.3225
620.6000	71.3597
620.5000	71.4007
620.4000	71.4469
620.3000	71.4965
620.2000	71.5592
620.1000	71.6245
620.0000	71.6974
619.9000	71.7784
619.8000	71.8675
619.7000	71.9578
619.6000	72.0567
619.5000	72.1627
619.4000	72.273
619.3000	72.3886
619.2000	72.5123
619.1000	72.6375
619.0000	72.7654
618.9000	72.8992
618.8000	73.0401
618.7000	73.1877
618.6000	73.3275
618.5000	73.4781
618.4000	73.6348
618.3000	73.7914
618.2000	73.9478
618.1000	74.1113
618.0000	74.28
617.9000	74.4437
617.8000	74.6133
617.7000	74.7826
617.6000	74.9482
617.5000	75.1203
617.4000	75.2913
617.3000	75.456
617.2000	75.6191
617.1000	75.7874
617.0000	75.9585
616.9000	76.1244
616.8000	76.2862
616.7000	76.4479
616.6000	76.6036
616.5000	76.759
616.4000	76.9094
616.3000	77.0586
616.2000	77.1999
616.1000	77.3347
616.0000	77.4702
615.9000	77.5959
615.8000	77.7238
615.7000	77.8444
615.6000	77.9609
615.5000	78.0675
615.4000	78.1658
615.3000	78.2634
615.2000	78.3518
615.1000	78.4317
615.0000	78.5058
614.9000	78.5722
614.8000	78.6305
614.7000	78.683
614.6000	78.7232
614.5000	78.764
614.4000	78.7936
614.3000	78.8167
614.2000	78.8252
614.1000	78.8352
614.0000	78.8342
613.9000	78.8236
613.8000	78.8056
613.7000	78.7742
613.6000	78.7397
613.5000	78.699
613.4000	78.6558
613.3000	78.5966
613.2000	78.5339
613.1000	78.4628
613.0000	78.3903
612.9000	78.3065
612.8000	78.217
612.7000	78.1232
612.6000	78.0237
612.5000	77.9172
612.4000	77.8053
612.3000	77.6875
612.2000	77.5687
612.1000	77.4432
612.0000	77.3119
611.9000	77.1717
611.8000	77.0305
611.7000	76.89
611.6000	76.7449
611.5000	76.5957
611.4000	76.4454
611.3000	76.2902
611.2000	76.1342
611.1000	75.9775
611.0000	75.82
610.9000	75.6625
610.8000	75.5035
610.7000	75.3428
610.6000	75.1835
610.5000	75.0265
610.4000	74.8738
610.3000	74.7215
610.2000	74.5679
610.1000	74.4168
610.0000	74.2683
609.9000	74.1263
609.8000	73.9871
609.7000	73.8539
609.6000	73.7213
609.5000	73.5912
609.4000	73.4659
609.3000	73.3406
609.2000	73.2244
609.1000	73.1166
609.0000	73.0123
608.9000	72.9124
608.8000	72.8187
608.7000	72.7344
608.6000	72.6539
608.5000	72.5787
608.4000	72.5101
608.3000	72.4484
608.2000	72.3935
608.1000	72.3463
608.0000	72.3103
607.9000	72.2781
607.8000	72.2514
607.7000	72.2397
607.6000	72.2317
607.5000	72.227
607.4000	72.2304
607.3000	72.2483
607.2000	72.2674
607.1000	72.2895
607.0000	72.3267
606.9000	72.3734
606.8000	72.4239
606.7000	72.4786
606.6000	72.5445
606.5000	72.6157
606.4000	72.6914
606.3000	72.7752
606.2000	72.8695
606.1000	72.9627
606.0000	73.0661
605.9000	73.179
605.8000	73.2937
605.7000	73.4108
605.6000	73.5348
605.5000	73.6746
605.4000	73.808
605.3000	73.9466
605.2000	74.0893
605.1000	74.2379
605.0000	74.386
604.9000	74.5388
604.8000	74.696
604.7000	74.8565
604.6000	75.0147
604.5000	75.1773
604.4000	75.3397
604.3000	75.5086
604.2000	75.6778
604.1000	75.8427
604.0000	76.0113
603.9000	76.1743
603.8000	76.3383
603.7000	76.4968
603.6000	76.6567
603.5000	76.8122
603.4000	76.9686
603.3000	77.12
603.2000	77.2649
603.1000	77.411
603.0000	77.5544
602.9000	77.6925
602.8000	77.8274
602.7000	77.9515
602.6000	78.0761
602.5000	78.1948
602.4000	78.3075
602.3000	78.411
602.2000	78.515
602.1000	78.6149
602.0000	78.705
601.9000	78.7943
601.8000	78.8694
601.7000	78.9403
601.6000	79.0063
601.5000	79.06
601.4000	79.1062
601.3000	79.1529
601.2000	79.1874
601.1000	79.215
601.0000	79.2277
600.9000	79.238
600.8000	79.2398
600.7000	79.2341
600.6000	79.2198
600.5000	79.1962
600.4000	79.1649
600.3000	79.1246
600.2000	79.082
600.1000	79.0313
600.0000	78.9654
599.9000	78.8963
599.8000	78.8183
599.7000	78.7382
599.6000	78.646
599.5000	78.5472
599.4000	78.4478
599.3000	78.3382
599.2000	78.2259
599.1000	78.1078
599.0000	77.9859
598.9000	77.8574
598.8000	77.7229
598.7000	77.5865
598.6000	77.4468
598.5000	77.3002
598.4000	77.1549
598.3000	77.0102
598.2000	76.8608
598.1000	76.7096
598.0000	76.5625
597.9000	76.4118
597.8000	76.2565
597.7000	76.1041
597.6000	75.9506
597.5000	75.794
597.4000	75.6427
597.3000	75.4961
597.2000	75.3465
597.1000	75.2037
597.0000	75.0651
596.9000	74.9315
596.8000	74.7968
596.7000	74.6648
596.6000	74.54
596.5000	74.415
596.4000	74.2953
596.3000	74.1808
596.2000	74.0769
596.1000	73.976
596.0000	73.8801
595.9000	73.794
595.8000	73.7093
595.7000	73.6342
595.6000	73.5683
595.5000	73.5047
595.4000	73.4454
595.3000	73.3964
595.2000	73.3531
595.1000	73.3205
595.0000	73.2921
594.9000	73.2795
594.8000	73.2667
594.7000	73.2693
594.6000	73.2679
594.5000	73.2799
594.4000	73.2981
594.3000	73.3253
594.2000	73.3608
594.1000	73.399
594.0000	73.4518
593.9000	73.5098
593.8000	73.5742
593.7000	73.6446
593.6000	73.7218
593.5000	73.8112
593.4000	73.9063
593.3000	74.0002
593.2000	74.1084
593.1000	74.2174
593.0000	74.3338
592.9000	74.4548
592.8000	74.5845
592.7000	74.7185
592.6000	74.8541
592.5000	74.9975
592.4000	75.1359
592.3000	75.2801
592.2000	75.4304
592.1000	75.5832
592.0000	75.7431
591.9000	75.8929
591.8000	76.0466
591.7000	76.2034
591.6000	76.3595
591.5000	76.516
591.4000	76.6754
591.3000	76.8304
591.2000	76.99
591.1000	77.1445
591.0000	77.2977
590.9000	77.4483
590.8000	77.5975
590.7000	77.7458
590.6000	77.8887
590.5000	78.0258
590.4000	78.1565
590.3000	78.2862
590.2000	78.4122
590.1000	78.533
590.0000	78.6493
589.9000	78.7574
589.8000	78.8629
589.7000	78.9646
589.6000	79.0533
589.5000	79.1387
589.4000	79.2177
589.3000	79.2872
589.2000	79.3509
589.1000	79.4061
589.0000	79.4563
588.9000	79.4954
588.8000	79.5294
588.7000	79.5552
588.6000	79.5776
588.5000	79.5928
588.4000	79.5957
588.3000	79.5932
588.2000	79.5824
588.1000	79.5612
588.0000	79.5357
587.9000	79.4964
587.8000	79.4529
587.7000	79.4055
587.6000	79.3533
587.5000	79.2895
587.4000	79.2168
587.3000	79.1447
587.2000	79.0665
587.1000	78.9809
587.0000	78.8808
586.9000	78.7787
586.8000	78.6729
586.7000	78.5636
586.6000	78.4479
586.5000	78.3265
586.4000	78.2024
586.3000	78.0759
586.2000	77.9489
586.1000	77.8153
586.0000	77.678
585.9000	77.5394
585.8000	77.4023
585.7000	77.2611
585.6000	77.117
585.5000	76.9754
585.4000	76.8354
585.3000	76.6909
585.2000	76.5517
585.1000	76.4119
585.0000	76.2717
584.9000	76.1348
584.8000	75.9935
584.7000	75.8657
584.6000	75.7318
584.5000	75.6056
584.4000	75.4805
584.3000	75.3592
584.2000	75.2487
584.1000	75.1387
584.0000	75.0351
583.9000	74.9367
583.8000	74.8462
583.7000	74.7558
583.6000	74.6688
583.5000	74.5898
583.4000	74.5196
583.3000	74.4597
583.2000	74.407
583.1000	74.3526
583.0000	74.3119
582.9000	74.2787
582.8000	74.2553
582.7000	74.2383
582.6000	74.2174
582.5000	74.2126
582.4000	74.2125
582.3000	74.2198
582.2000	74.2343
582.1000	74.2604
582.0000	74.2936
581.9000	74.3375
581.8000	74.387
581.7000	74.4378
581.6000	74.5015
581.5000	74.5702
581.4000	74.6481
581.3000	74.7244
581.2000	74.8105
581.1000	74.9021
581.0000	75.011
580.9000	75.1144
580.8000	75.2223
580.7000	75.3405
580.6000	75.463
580.5000	75.5934
580.4000	75.7212
580.3000	75.85
580.2000	75.986
580.1000	76.1278
580.0000	76.2701
579.9000	76.417
579.8000	76.5593
579.7000	76.7116
579.6000	76.8567
579.5000	77.0103
579.4000	77.1516
579.3000	77.3044
579.2000	77.4554
579.1000	77.6014
579.0000	77.7461
578.9000	77.8821
578.8000	78.0269
578.7000	78.1682
578.6000	78.2996
578.5000	78.429
578.4000	78.5571
578.3000	78.6796
578.2000	78.8004
578.1000	78.9116
578.0000	79.0251
577.9000	79.128
577.8000	79.2314
577.7000	79.3217
577.6000	79.405
577.5000	79.4828
577.4000	79.556
577.3000	79.6249
577.2000	79.6848
577.1000	79.7341
577.0000	79.7843
576.9000	79.8209
576.8000	79.8492
576.7000	79.871
576.6000	79.8876
576.5000	79.8971
576.4000	79.8937
576.3000	79.8878
576.2000	79.871
576.1000	79.8487
576.0000	79.824
575.9000	79.7873
575.8000	79.744
575.7000	79.6961
575.6000	79.6361
575.5000	79.5734
575.4000	79.5005
575.3000	79.4285
575.2000	79.3492
575.1000	79.2605
575.0000	79.1692
574.9000	79.0715
574.8000	78.9689
574.7000	78.8626
574.6000	78.7499
574.5000	78.6351
574.4000	78.5136
574.3000	78.3912
574.2000	78.264
574.1000	78.1332
574.0000	78.0029
573.9000	77.8733
573.8000	77.7417
573.7000	77.6084
573.6000	77.4696
573.5000	77.3359
573.4000	77.1996
573.3000	77.0661
573.2000	76.9306
573.1000	76.7967
573.0000	76.6674
572.9000	76.5411
572.8000	76.4149
572.7000	76.2935
572.6000	76.1735
572.5000	76.0597
572.4000	75.9529
572.3000	75.8463
572.2000	75.7442
572.1000	75.647
572.0000	75.5615
571.9000	75.4778
571.8000	75.4035
571.7000	75.3306
571.6000	75.2674
571.5000	75.2097
571.4000	75.1602
571.3000	75.1184
571.2000	75.0877
571.1000	75.06
571.0000	75.0414
570.9000	75.0283
570.8000	75.0215
570.7000	75.0252
570.6000	75.034
570.5000	75.0499
570.4000	75.0721
570.3000	75.1073
570.2000	75.1432
570.1000	75.1919
570.0000	75.2489
569.9000	75.3104
569.8000	75.3782
569.7000	75.4497
569.6000	75.5265
569.5000	75.6131
569.4000	75.7045
569.3000	75.8046
569.2000	75.9075
569.1000	76.0125
569.0000	76.1228
568.9000	76.2412
568.8000	76.363
568.7000	76.4815
568.6000	76.6059
568.5000	76.7343
568.4000	76.867
568.3000	76.9977
568.2000	77.133
568.1000	77.2688
568.0000	77.4065
567.9000	77.5415
567.8000	77.6795
567.7000	77.8157
567.6000	77.9527
567.5000	78.0871
567.4000	78.2241
567.3000	78.3541
567.2000	78.4805
567.1000	78.6082
567.0000	78.7312
566.9000	78.8475
566.8000	78.9596
566.7000	79.0715
566.6000	79.1751
566.5000	79.275
566.4000	79.3676
566.3000	79.4593
566.2000	79.5421
566.1000	79.6171
566.0000	79.6836
565.9000	79.7468
565.8000	79.8005
565.7000	79.8514
565.6000	79.8919
565.5000	79.931
565.4000	79.9629
565.3000	79.9798
565.2000	79.9942
565.1000	79.9968
565.0000	79.9964
564.9000	79.9863
564.8000	79.9699
564.7000	79.9455
564.6000	79.9125
564.5000	79.8759
564.4000	79.833
564.3000	79.7809
564.2000	79.7203
564.1000	79.6508
564.0000	79.5816
563.9000	79.4988
563.8000	79.4112
563.7000	79.329
563.6000	79.2346
563.5000	79.1351
563.4000	79.0268
563.3000	78.9201
563.2000	78.8082
563.1000	78.6945
563.0000	78.5769
562.9000	78.4538
562.8000	78.3337
562.7000	78.2062
562.6000	78.0811
562.5000	77.9565
562.4000	77.8294
562.3000	77.7028
562.2000	77.5749
562.1000	77.4472
562.0000	77.3198
561.9000	77.1941
561.8000	77.0777
561.7000	76.9579
561.6000	76.8404
561.5000	76.7272
561.4000	76.6165
561.3000	76.5111
561.2000	76.4087
561.1000	76.3135
561.0000	76.226
560.9000	76.1419
560.8000	76.0598
560.7000	75.9862
560.6000	75.9152
560.5000	75.8502
560.4000	75.793
560.3000	75.7475
560.2000	75.7026
560.1000	75.6676
560.0000	75.6417
559.9000	75.6171
559.8000	75.6024
559.7000	75.5967
559.6000	75.5978
559.5000	75.6057
559.4000	75.6194
559.3000	75.6417
559.2000	75.6721
559.1000	75.7103
559.0000	75.7562
558.9000	75.8114
558.8000	75.8697
558.7000	75.9356
558.6000	76.0057
558.5000	76.0818
558.4000	76.1636
558.3000	76.2519
558.2000	76.3507
558.1000	76.4474
558.0000	76.5485
557.9000	76.6569
557.8000	76.7704
557.7000	76.8833
557.6000	76.9991
557.5000	77.1207
557.4000	77.247
557.3000	77.3675
557.2000	77.4973
557.1000	77.6266
557.0000	77.7577
556.9000	77.8846
556.8000	78.0129
556.7000	78.1443
556.6000	78.2711
556.5000	78.3974
556.4000	78.5212
556.3000	78.6429
556.2000	78.7552
556.1000	78.8699
556.0000	78.9853
555.9000	79.0919
555.8000	79.1903
555.7000	79.2894
555.6000	79.3816
555.5000	79.4658
555.4000	79.5448
555.3000	79.6191
555.2000	79.6838
555.1000	79.742
555.0000	79.7954
554.9000	79.8427
554.8000	79.8804
554.7000	79.9127
554.6000	79.9392
554.5000	79.9529
554.4000	79.9613
554.3000	79.9605
554.2000	79.9612
554.1000	79.9464
554.0000	79.9268
553.9000	79.8987
553.8000	79.8664
553.7000	79.8254
553.6000	79.7793
553.5000	79.7262
553.4000	79.6605
553.3000	79.5926
553.2000	79.5211
553.1000	79.445
553.0000	79.3605
552.9000	79.2757
552.8000	79.1788
552.7000	79.0775
552.6000	78.9678
552.5000	78.8598
552.4000	78.7465
552.3000	78.6308
552.2000	78.5062
552.1000	78.385
552.0000	78.261
551.9000	78.1363
551.8000	78.0161
551.7000	77.8929
551.6000	77.7672
551.5000	77.639
551.4000	77.5162
551.3000	77.3944
551.2000	77.274
551.1000	77.1575
551.0000	77.0491
550.9000	76.9409
550.8000	76.8342
550.7000	76.7324
550.6000	76.6379
550.5000	76.5438
550.4000	76.456
550.3000	76.3741
550.2000	76.2935
550.1000	76.2239
550.0000	76.1609
549.9000	76.1026
549.8000	76.0515
549.7000	76.0056
549.6000	75.9679
549.5000	75.9401
549.4000	75.9111
549.3000	75.8936
549.2000	75.8835
549.1000	75.8834
549.0000	75.8918
548.9000	75.9096
548.8000	75.9334
548.7000	75.9613
548.6000	75.9986
548.5000	76.0362
548.4000	76.0818
548.3000	76.1407
548.2000	76.2056
548.1000	76.2738
548.0000	76.346
547.9000	76.4258
547.8000	76.5097
547.7000	76.5996
547.6000	76.6937
547.5000	76.7885
547.4000	76.8896
547.3000	76.9946
547.2000	77.1015
547.1000	77.2116
547.0000	77.3257
546.9000	77.4478
546.8000	77.5623
546.7000	77.6738
546.6000	77.788
546.5000	77.908
546.4000	78.0291
546.3000	78.1407
546.2000	78.2571
546.1000	78.3698
546.0000	78.4828
545.9000	78.5909
545.8000	78.6956
545.7000	78.7935
545.6000	78.8911
545.5000	78.9844
545.4000	79.0688
545.3000	79.147
545.2000	79.2258
545.1000	79.302
545.0000	79.3685
544.9000	79.4238
544.8000	79.4759
544.7000	79.5213
544.6000	79.5638
544.5000	79.5923
544.4000	79.6151
544.3000	79.6399
544.2000	79.6522
544.1000	79.658
544.0000	79.6536
543.9000	79.6414
543.8000	79.6239
543.7000	79.5977
543.6000	79.5658
543.5000	79.5228
543.4000	79.4769
543.3000	79.4257
543.2000	79.3684
543.1000	79.3085
543.0000	79.2358
542.9000	79.1642
542.8000	79.0856
542.7000	78.9942
542.6000	78.9028
542.5000	78.8017
542.4000	78.7028
542.3000	78.5987
542.2000	78.4913
542.1000	78.383
542.0000	78.2729
541.9000	78.1622
541.8000	78.0433
541.7000	77.9282
541.6000	77.8075
541.5000	77.6867
541.4000	77.5685
541.3000	77.451
541.2000	77.3302
541.1000	77.2158
541.0000	77.1012
540.9000	76.9969
540.8000	76.8905
540.7000	76.7901
540.6000	76.6938
540.5000	76.6011
540.4000	76.5095
540.3000	76.4241
540.2000	76.3518
540.1000	76.275
540.0000	76.2052
539.9000	76.1472
539.8000	76.0895
539.7000	76.0438
539.6000	76.0039
539.5000	75.9687
539.4000	75.9387
539.3000	75.9138
539.2000	75.8997
539.1000	75.8895
539.0000	75.8868
538.9000	75.8881
538.8000	75.9016
538.7000	75.9196
538.6000	75.9391
538.5000	75.9759
538.4000	76.0173
538.3000	76.0625
538.2000	76.1218
538.1000	76.1761
538.0000	76.2425
537.9000	76.3125
537.8000	76.3913
537.7000	76.4749
537.6000	76.5599
537.5000	76.65
537.4000	76.746
537.3000	76.8443
537.2000	76.9434
537.1000	77.0494
537.0000	77.1572
536.9000	77.2652
536.8000	77.3715
536.7000	77.4769
536.6000	77.5777
536.5000	77.6902
536.4000	77.7982
536.3000	77.9061
536.2000	78.0084
536.1000	78.1112
536.0000	78.2102
535.9000	78.3074
535.8000	78.3989
535.7000	78.4923
535.6000	78.5814
535.5000	78.6608
535.4000	78.7394
535.3000	78.8063
535.2000	78.8773
535.1000	78.9392
535.0000	78.997
534.9000	79.0408
534.8000	79.0798
534.7000	79.1135
534.6000	79.1434
534.5000	79.1632
534.4000	79.1769
534.3000	79.1835
534.2000	79.1829
534.1000	79.1748
534.0000	79.1576
533.9000	79.1336
533.8000	79.1011
533.7000	79.0683
533.6000	79.0222
533.5000	78.9727
533.4000	78.92
533.3000	78.8556
533.2000	78.7893
533.1000	78.714
533.0000	78.6313
532.9000	78.5481
532.8000	78.4601
532.7000	78.3682
532.6000	78.2716
532.5000	78.1685
532.4000	78.0653
532.3000	77.9602
532.2000	77.8542
532.1000	77.7392
532.0000	77.6265
531.9000	77.5113
531.8000	77.3916
531.7000	77.282
531.6000	77.1651
531.5000	77.0507
531.4000	76.9402
531.3000	76.8319
531.2000	76.7241
531.1000	76.618
531.0000	76.5158
530.9000	76.4147
530.8000	76.3167
530.7000	76.2245
530.6000	76.1386
530.5000	76.0592
530.4000	75.9832
530.3000	75.914
530.2000	75.847
530.1000	75.7864
530.0000	75.7352
529.9000	75.6931
529.8000	75.6558
529.7000	75.6205
529.6000	75.592
529.5000	75.5716
529.4000	75.5603
529.3000	75.5595
529.2000	75.5668
529.1000	75.5743
529.0000	75.5889
528.9000	75.6153
528.8000	75.6514
528.7000	75.6875
528.6000	75.7336
528.5000	75.7825
528.4000	75.8428
528.3000	75.9017
528.2000	75.9685
528.1000	76.0407
528.0000	76.1203
527.9000	76.2029
527.8000	76.2844
527.7000	76.3713
527.6000	76.4539
527.5000	76.552
527.4000	76.6477
527.3000	76.7422
527.2000	76.8331
527.1000	76.9303
527.0000	77.0292
526.9000	77.1257
526.8000	77.2174
526.7000	77.3128
526.6000	77.4078
526.5000	77.4985
526.4000	77.5882
526.3000	77.675
526.2000	77.7632
526.1000	77.8408
526.0000	77.9255
525.9000	77.9936
525.8000	78.0633
525.7000	78.1231
525.6000	78.1809
525.5000	78.2283
525.4000	78.274
525.3000	78.3133
525.2000	78.3445
525.1000	78.3726
525.0000	78.3901
524.9000	78.4052
524.8000	78.4095
524.7000	78.4022
524.6000	78.391
524.5000	78.3748
524.4000	78.3451
524.3000	78.3146
524.2000	78.2724
524.1000	78.227
524.0000	78.1781
523.9000	78.1272
523.8000	78.0631
523.7000	77.9939
523.6000	77.9226
523.5000	77.8389
523.4000	77.7526
523.3000	77.6603
523.2000	77.567
523.1000	77.4767
523.0000	77.3757
522.9000	77.2696
522.8000	77.1646
522.7000	77.0587
522.6000	76.9517
522.5000	76.8436
522.4000	76.7277
522.3000	76.6128
522.2000	76.5039
522.1000	76.3937
522.0000	76.2809
521.9000	76.1774
521.8000	76.0726
521.7000	75.9695
521.6000	75.8677
521.5000	75.7709
521.4000	75.6795
521.3000	75.5937
521.2000	75.5142
521.1000	75.4325
521.0000	75.3622
520.9000	75.2944
520.8000	75.237
520.7000	75.1837
520.6000	75.1366
520.5000	75.1024
520.4000	75.0692
520.3000	75.0395
520.2000	75.0209
520.1000	75.0126
520.0000	74.9417
519.9000	74.9509
519.8000	74.9593
519.7000	74.9831
519.6000	75.0087
519.5000	75.0382
519.4000	75.0777
519.3000	75.1225
519.2000	75.1761
519.1000	75.2287
519.0000	75.292
518.9000	75.3597
518.8000	75.4291
518.7000	75.5044
518.6000	75.5812
518.5000	75.6631
518.4000	75.7408
518.3000	75.8251
518.2000	75.9156
518.1000	76.0049
518.0000	76.0946
517.9000	76.1883
517.8000	76.2805
517.7000	76.3719
517.6000	76.4541
517.5000	76.5392
517.4000	76.6233
517.3000	76.7063
517.2000	76.7914
517.1000	76.868
517.0000	76.9457
516.9000	77.017
516.8000	77.0875
516.7000	77.1509
516.6000	77.1986
516.5000	77.2503
516.4000	77.2958
516.3000	77.3316
516.2000	77.3607
516.1000	77.3871
516.0000	77.4103
515.9000	77.4261
515.8000	77.4364
515.7000	77.4355
515.6000	77.426
515.5000	77.4134
515.4000	77.3895
515.3000	77.359
515.2000	77.3222
515.1000	77.2825
515.0000	77.2363
514.9000	77.1785
514.8000	77.1145
514.7000	77.0477
514.6000	76.9778
514.5000	76.8988
514.4000	76.8153
514.3000	76.7289
514.2000	76.6361
514.1000	76.5399
514.0000	76.4383
513.9000	76.3347
513.8000	76.2307
513.7000	76.1243
513.6000	76.0178
513.5000	75.9095
513.4000	75.8055
513.3000	75.6975
513.2000	75.5919
513.1000	75.4906
513.0000	75.3849
512.9000	75.2814
512.8000	75.1805
512.7000	75.0806
512.6000	74.9835
512.5000	74.8972
512.4000	74.8159
512.3000	74.7345
512.2000	74.6572
512.1000	74.5871
512.0000	74.5206
511.9000	74.4598
511.8000	74.4069
511.7000	74.3615
511.6000	74.3213
511.5000	74.2833
511.4000	74.254
511.3000	74.2356
511.2000	74.2252
511.1000	74.2224
511.0000	74.2217
510.9000	74.2262
510.8000	74.2358
510.7000	74.2596
510.6000	74.2884
510.5000	74.3267
510.4000	74.3639
510.3000	74.4066
510.2000	74.4579
510.1000	74.5178
510.0000	74.5809
509.9000	74.6465
509.8000	74.7187
509.7000	74.7895
509.6000	74.8655
509.5000	74.9433
509.4000	75.0256
509.3000	75.1087
509.2000	75.1963
509.1000	75.2817
509.0000	75.3672
508.9000	75.4457
508.8000	75.5339
508.7000	75.6187
508.6000	75.7012
508.5000	75.7747
508.4000	75.8461
508.3000	75.9199
508.2000	75.9826
508.1000	76.0477
508.0000	76.1025
507.9000	76.1546
507.8000	76.2073
507.7000	76.2523
507.6000	76.2851
507.5000	76.3145
507.4000	76.3375
507.3000	76.3579
507.2000	76.3678
507.1000	76.3706
507.0000	76.368
506.9000	76.3621
506.8000	76.3444
506.7000	76.3197
506.6000	76.2935
506.5000	76.2563
506.4000	76.2135
506.3000	76.166
506.2000	76.1087
506.1000	76.043
506.0000	75.9764
505.9000	75.9014
505.8000	75.823
505.7000	75.7383
505.6000	75.6521
505.5000	75.5605
505.4000	75.4623
505.3000	75.3634
505.2000	75.2657
505.1000	75.1653
505.0000	75.0618
504.9000	74.9529
504.8000	74.852
504.7000	74.7478
504.6000	74.6456
504.5000	74.5441
504.4000	74.4438
504.3000	74.3515
504.2000	74.2557
504.1000	74.1679
504.0000	74.0816
503.9000	73.9951
503.8000	73.9207
503.7000	73.8447
503.6000	73.7717
503.5000	73.7078
503.4000	73.6491
503.3000	73.6074
503.2000	73.5577
503.1000	73.5188
503.0000	73.4875
502.9000	73.4604
502.8000	73.443
502.7000	73.4252
502.6000	73.4217
502.5000	73.4205
502.4000	73.426
502.3000	73.4457
502.2000	73.4655
502.1000	73.4911
502.0000	73.5304
501.9000	73.5677
501.8000	73.6118
501.7000	73.6593
501.6000	73.7181
501.5000	73.7787
501.4000	73.8383
501.3000	73.9069
501.2000	73.9745
501.1000	74.0502
501.0000	74.1222
500.9000	74.198
500.8000	74.2717
500.7000	74.3454
500.6000	74.4215
500.5000	74.4951
500.4000	74.5688
500.3000	74.642
500.2000	74.7135
500.1000	74.7768
500.0000	74.8412
499.9000	74.8987
499.8000	74.9592
499.7000	75.0141
499.6000	75.0625
499.5000	75.1027
499.4000	75.1445
499.3000	75.1798
499.2000	75.2087
499.1000	75.2339
499.0000	75.2481
498.9000	75.259
498.8000	75.261
498.7000	75.2566
498.6000	75.2476
498.5000	75.2307
498.4000	75.2054
498.3000	75.1758
498.2000	75.138
498.1000	75.0954
498.0000	75.0494
497.9000	74.9961
497.8000	74.9374
497.7000	74.868
497.6000	74.8019
497.5000	74.7278
497.4000	74.648
497.3000	74.5685
497.2000	74.4807
497.1000	74.3939
497.0000	74.3006
496.9000	74.2113
496.8000	74.1173
496.7000	74.0235
496.6000	73.9263
496.5000	73.8297
496.4000	73.7343
496.3000	73.6421
496.2000	73.5485
496.1000	73.4607
496.0000	73.3684
495.9000	73.2813
495.8000	73.2022
495.7000	73.1232
495.6000	73.0518
495.5000	72.9828
495.4000	72.9222
495.3000	72.8618
495.2000	72.8104
495.1000	72.7607
495.0000	72.7207
494.9000	72.684
494.8000	72.6545
494.7000	72.6311
494.6000	72.6137
494.5000	72.6044
494.4000	72.6031
494.3000	72.6066
494.2000	72.6158
494.1000	72.6355
494.0000	72.6578
493.9000	72.6871
493.8000	72.7188
493.7000	72.7546
493.6000	72.797
493.5000	72.848
493.4000	72.8988
493.3000	72.9551
493.2000	73.0146
493.1000	73.0785
493.0000	73.141
492.9000	73.2068
492.8000	73.274
492.7000	73.3419
492.6000	73.4105
492.5000	73.4724
492.4000	73.5365
492.3000	73.6017
492.2000	73.6673
492.1000	73.7321
492.0000	73.7906
491.9000	73.8452
491.8000	73.9018
491.7000	73.9534
491.6000	73.9941
491.5000	74.0336
491.4000	74.0744
491.3000	74.1029
491.2000	74.1303
491.1000	74.1501
491.0000	74.1642
490.9000	74.1728
490.8000	74.1757
490.7000	74.1731
490.6000	74.1661
490.5000	74.1491
490.4000	74.1278
490.3000	74.101
490.2000	74.0629
490.1000	74.0206
490.0000	73.9782
489.9000	73.926
489.8000	73.8679
489.7000	73.8089
489.6000	73.7403
489.5000	73.6699
489.4000	73.5935
489.3000	73.5201
489.2000	73.4416
489.1000	73.3572
489.0000	73.2667
488.9000	73.1819
488.8000	73.0973
488.7000	73.0131
488.6000	72.928
488.5000	72.8437
488.4000	72.7656
488.3000	72.685
488.2000	72.6064
488.1000	72.5282
488.0000	72.4566
487.9000	72.3888
487.8000	72.3227
487.7000	72.2572
487.6000	72.1992
487.5000	72.1439
487.4000	72.0977
487.3000	72.0526
487.2000	72.0126
487.1000	71.9741
487.0000	71.9443
486.9000	71.9205
486.8000	71.899
486.7000	71.8887
486.6000	71.8794
486.5000	71.8798
486.4000	71.8836
486.3000	71.8927
486.2000	71.9122
486.1000	71.9336
486.0000	71.9586
485.9000	71.99
485.8000	72.0251
485.7000	72.0653
485.6000	72.1069
485.5000	72.1538
485.4000	72.2067
485.3000	72.2573
485.2000	72.3134
485.1000	72.3674
485.0000	72.4232
484.9000	72.4813
484.8000	72.5387
484.7000	72.5949
484.6000	72.6524
484.5000	72.7117
484.4000	72.7673
484.3000	72.8217
484.2000	72.8696
484.1000	72.9183
484.0000	72.9663
483.9000	73.0093
483.8000	73.0459
483.7000	73.0828
483.6000	73.1096
483.5000	73.134
483.4000	73.157
483.3000	73.1732
483.2000	73.1823
483.1000	73.19
483.0000	73.1863
482.9000	73.1764
482.8000	73.1606
482.7000	73.1406
482.6000	73.1206
482.5000	73.0914
482.4000	73.0559
482.3000	73.0152
482.2000	72.9686
482.1000	72.9189
482.0000	72.8639
481.9000	72.8063
481.8000	72.745
481.7000	72.6798
481.6000	72.6141
481.5000	72.5421
481.4000	72.4687
481.3000	72.3915
481.2000	72.3203
481.1000	72.2477
481.0000	72.1712
480.9000	72.0969
480.8000	72.0226
480.7000	71.9466
480.6000	71.8777
480.5000	71.8122
480.4000	71.7492
480.3000	71.6841
480.2000	71.6225
480.1000	71.564
480.0000	71.5089
479.9000	71.46
479.8000	71.4173
479.7000	71.3829
479.6000	71.3455
479.5000	71.3189
479.4000	71.2945
479.3000	71.2754
479.2000	71.2568
479.1000	71.2526
479.0000	71.2511
478.9000	71.2507
478.8000	71.2551
478.7000	71.2688
478.6000	71.2852
478.5000	71.3135
478.4000	71.3428
478.3000	71.3742
478.2000	71.4089
478.1000	71.4452
478.0000	71.489
477.9000	71.5304
477.8000	71.5765
477.7000	71.6279
477.6000	71.6817
477.5000	71.7335
477.4000	71.7821
477.3000	71.8322
477.2000	71.8852
477.1000	71.9341
477.0000	71.9832
476.9000	72.0264
476.8000	72.0712
476.7000	72.1143
476.6000	72.1535
476.5000	72.1923
476.4000	72.2258
476.3000	72.2538
476.2000	72.2818
476.1000	72.3007
476.0000	72.3215
475.9000	72.334
475.8000	72.346
475.7000	72.348
475.6000	72.3442
475.5000	72.339
475.4000	72.3299
475.3000	72.3162
475.2000	72.2935
475.1000	72.2672
475.0000	72.2407
474.9000	72.2084
474.8000	72.1706
474.7000	72.1288
474.6000	72.0777
474.5000	72.0273
474.4000	71.9723
474.3000	71.912
474.2000	71.8502
474.1000	71.7963
474.0000	71.7391
473.9000	71.679
473.8000	71.6198
473.7000	71.5528
473.6000	71.4948
473.5000	71.4331
473.4000	71.3729
473.3000	71.3139
473.2000	71.2547
473.1000	71.202
473.0000	71.1554
472.9000	71.1097
472.8000	71.0661
472.7000	71.0287
472.6000	70.9976
472.5000	70.9628
472.4000	70.9344
472.3000	70.909
472.2000	70.8854
472.1000	70.8725
472.0000	70.859
471.9000	70.8524
471.8000	70.8504
471.7000	70.851
471.6000	70.8625
471.5000	70.8753
471.4000	70.8877
471.3000	70.9101
471.2000	70.9353
471.1000	70.9646
471.0000	70.9914
470.9000	71.0247
470.8000	71.0616
470.7000	71.1015
470.6000	71.1412
470.5000	71.1809
470.4000	71.2238
470.3000	71.2712
470.2000	71.3112
470.1000	71.355
470.0000	71.3971
469.9000	71.4354
469.8000	71.4786
469.7000	71.5142
469.6000	71.5481
469.5000	71.583
469.4000	71.6129
469.3000	71.6397
469.2000	71.6627
469.1000	71.6801
469.0000	71.7006
468.9000	71.7196
468.8000	71.7292
468.7000	71.7278
468.6000	71.7341
468.5000	71.7318
468.4000	71.7252
468.3000	71.7205
468.2000	71.7048
468.1000	71.6888
468.0000	71.6658
467.9000	71.6425
467.8000	71.6143
467.7000	71.5873
467.6000	71.5554
467.5000	71.521
467.4000	71.4787
467.3000	71.4357
467.2000	71.3964
467.1000	71.3581
467.0000	71.3121
466.9000	71.2646
466.8000	71.217
466.7000	71.1663
466.6000	71.121
466.5000	71.07
466.4000	71.0309
466.3000	70.9857
466.2000	70.9472
466.1000	70.901
466.0000	70.8622
465.9000	70.8242
465.8000	70.794
465.7000	70.7633
465.6000	70.7365
465.5000	70.7113
465.4000	70.6901
465.3000	70.6743
465.2000	70.663
465.1000	70.6526
465.0000	70.6468
464.9000	70.6497
464.8000	70.6523
464.7000	70.6541
464.6000	70.6614
464.5000	70.6733
464.4000	70.6872
464.3000	70.7089
464.2000	70.7311
464.1000	70.7553
464.0000	70.7786
463.9000	70.8046
463.8000	70.8375
463.7000	70.8741
463.6000	70.908
463.5000	70.9431
463.4000	70.979
463.3000	71.0113
463.2000	71.0425
463.1000	71.0779
463.0000	71.1127
462.9000	71.1511
462.8000	71.1844
462.7000	71.2117
462.6000	71.2355
462.5000	71.2663
462.4000	71.2903
462.3000	71.3152
462.2000	71.3346
462.1000	71.3479
462.0000	71.3623
461.9000	71.3754
461.8000	71.3809
461.7000	71.3878
461.6000	71.3883
461.5000	71.3895
461.4000	71.3772
461.3000	71.3679
461.2000	71.3576
461.1000	71.3444
461.0000	71.333
460.9000	71.3086
460.8000	71.2841
460.7000	71.2611
460.6000	71.2307
460.5000	71.2043
460.4000	71.1733
460.3000	71.1408
460.2000	71.1125
460.1000	71.0791
460.0000	71.0468
459.9000	71.0113
459.8000	70.9828
459.7000	70.9497
459.6000	70.9159
459.5000	70.8891
459.4000	70.8604
459.3000	70.8371
459.2000	70.8164
459.1000	70.7955
459.0000	70.7781
458.9000	70.7611
458.8000	70.7457
458.7000	70.7344
458.6000	70.7227
458.5000	70.7161
458.4000	70.7143
458.3000	70.7163
458.2000	70.7211
458.1000	70.7271
458.0000	70.7354
457.9000	70.7445
457.8000	70.7563
457.7000	70.771
457.6000	70.791
457.5000	70.8037
457.4000	70.821
457.3000	70.8458
457.2000	70.8729
457.1000	70.8988
457.0000	70.9254
456.9000	70.9534
456.8000	70.9817
456.7000	71.0078
456.6000	71.037
456.5000	71.0623
456.4000	71.0939
456.3000	71.1214
456.2000	71.1473
456.1000	71.1717
456.0000	71.1941
455.9000	71.2206
455.8000	71.2434
455.7000	71.2557
455.6000	71.2683
455.5000	71.2844
455.4000	71.2998
455.3000	71.3098
455.2000	71.3174
455.1000	71.3185
455.0000	71.3217
454.9000	71.324
454.8000	71.3205
454.7000	71.3149
454.6000	71.3103
454.5000	71.3059
454.4000	71.2969
454.3000	71.2848
454.2000	71.2742
454.1000	71.2646
454.0000	71.2491
453.9000	71.2327
453.8000	71.2169
453.7000	71.1963
453.6000	71.1787
453.5000	71.1694
453.4000	71.1517
453.3000	71.1396
453.2000	71.1263
453.1000	71.1112
453.0000	71.097
452.9000	71.08
452.8000	71.0678
452.7000	71.0603
452.6000	71.0493
452.5000	71.046
452.4000	71.0438
452.3000	71.0403
452.2000	71.0365
452.1000	71.0396
452.0000	71.0432
451.9000	71.0461
451.8000	71.0554
451.7000	71.0629
451.6000	71.0682
451.5000	71.083
451.4000	71.0916
451.3000	71.1049
451.2000	71.1229
451.1000	71.1408
451.0000	71.1594
450.9000	71.1725
450.8000	71.1901
450.7000	71.2093
450.6000	71.2325
450.5000	71.2564
450.4000	71.2737
450.3000	71.2962
450.2000	71.3124
450.1000	71.3287
450.0000	71.3486
449.9000	71.3641
449.8000	71.386
449.7000	71.4045
449.6000	71.4165
449.5000	71.4307
449.4000	71.4453
449.3000	71.4593
449.2000	71.4705
449.1000	71.4778
449.0000	71.4851
448.9000	71.491
448.8000	71.4954
448.7000	71.4937
448.6000	71.4957
448.5000	71.4995
448.4000	71.5015
448.3000	71.5016
448.2000	71.4952
448.1000	71.4892
448.0000	71.4841
447.9000	71.4754
447.8000	71.4696
447.7000	71.4618
447.6000	71.4566
447.5000	71.4526
447.4000	71.4462
447.3000	71.4408
447.2000	71.4323
447.1000	71.4263
447.0000	71.4281
446.9000	71.4225
446.8000	71.4173
446.7000	71.4123
446.6000	71.4175
446.5000	71.4232
446.4000	71.4258
446.3000	71.4324
446.2000	71.4382
446.1000	71.4464
446.0000	71.456
445.9000	71.4673
445.8000	71.4772
445.7000	71.4872
445.6000	71.5058
445.5000	71.5228
445.4000	71.5312
445.3000	71.5452
445.2000	71.5609
445.1000	71.5846
445.0000	71.5965
444.9000	71.6094
444.8000	71.6308
444.7000	71.6476
444.6000	71.6633
444.5000	71.6799
444.4000	71.6909
444.3000	71.6999
444.2000	71.7158
444.1000	71.7286
444.0000	71.7428
443.9000	71.7553
443.8000	71.7705
443.7000	71.7805
443.6000	71.792
443.5000	71.7997
443.4000	71.8084
443.3000	71.815
443.2000	71.8152
443.1000	71.8187
443.0000	71.8183
442.9000	71.8184
442.8000	71.8229
442.7000	71.8231
442.6000	71.8213
442.5000	71.8211
442.4000	71.819
442.3000	71.8159
442.2000	71.8066
442.1000	71.8069
442.0000	71.8026
441.9000	71.7953
441.8000	71.7932
441.7000	71.7934
441.6000	71.7941
441.5000	71.7952
441.4000	71.804
441.3000	71.8097
441.2000	71.8093
441.1000	71.8189
441.0000	71.8251
440.9000	71.8339
440.8000	71.8424
440.7000	71.8529
440.6000	71.8675
440.5000	71.8824
440.4000	71.8972
440.3000	71.9163
440.2000	71.9382
440.1000	71.9566
440.0000	71.9701
439.9000	71.9885
439.8000	72.0067
439.7000	72.0253
439.6000	72.0487
439.5000	72.0667
439.4000	72.0822
439.3000	72.1018
439.2000	72.1184
439.1000	72.1357
439.0000	72.1514
438.9000	72.163
438.8000	72.1799
438.7000	72.1913
438.6000	72.2017
438.5000	72.2066
438.4000	72.2228
438.3000	72.232
438.2000	72.2355
438.1000	72.2395
438.0000	72.2406
437.9000	72.2454
437.8000	72.2478
437.7000	72.2487
437.6000	72.2486
437.5000	72.2466
437.4000	72.2486
437.3000	72.2465
437.2000	72.2351
437.1000	72.2362
437.0000	72.2314
436.9000	72.2337
436.8000	72.2279
436.7000	72.225
436.6000	72.2255
436.5000	72.2239
436.4000	72.2268
436.3000	72.225
436.2000	72.2335
436.1000	72.2346
436.0000	72.2387
435.9000	72.2463
435.8000	72.254
435.7000	72.2648
435.6000	72.2816
435.5000	72.2892
435.4000	72.3012
435.3000	72.3171
435.2000	72.3355
435.1000	72.354
435.0000	72.3713
434.9000	72.3923
434.8000	72.4142
434.7000	72.4372
434.6000	72.452
434.5000	72.4766
434.4000	72.502
434.3000	72.5304
434.2000	72.5494
434.1000	72.5715
434.0000	72.5968
433.9000	72.624
433.8000	72.6456
433.7000	72.6592
433.6000	72.6778
433.5000	72.6933
433.4000	72.7124
433.3000	72.7271
433.2000	72.7413
433.1000	72.7514
433.0000	72.7662
432.9000	72.7729
432.8000	72.7763
432.7000	72.7752
432.6000	72.777
432.5000	72.7762
432.4000	72.7734
432.3000	72.7656
432.2000	72.7611
432.1000	72.7606
432.0000	72.7544
431.9000	72.7489
431.8000	72.7421
431.7000	72.7355
431.6000	72.7306
431.5000	72.7264
431.4000	72.7173
431.3000	72.7145
431.2000	72.7139
431.1000	72.7142
431.0000	72.7147
430.9000	72.7111
430.8000	72.7122
430.7000	72.7181
430.6000	72.7264
430.5000	72.7336
430.4000	72.7456
430.3000	72.7573
430.2000	72.7666
430.1000	72.7835
430.0000	72.7939
429.9000	72.8084
429.8000	72.8309
429.7000	72.8512
429.6000	72.8684
429.5000	72.8876
429.4000	72.9122
429.3000	72.9442
429.2000	72.9694
429.1000	72.9963
429.0000	73.0166
428.9000	73.0417
428.8000	73.0658
428.7000	73.0905
428.6000	73.1152
428.5000	73.1383
428.4000	73.1612
428.3000	73.1863
428.2000	73.203
428.1000	73.218
428.0000	73.2357
427.9000	73.2527
427.8000	73.2642
427.7000	73.2729
427.6000	73.281
427.5000	73.2862
427.4000	73.2971
427.3000	73.3017
427.2000	73.307
427.1000	73.3027
427.0000	73.3047
426.9000	73.3006
426.8000	73.3016
426.7000	73.3011
426.6000	73.3013
426.5000	73.3023
426.4000	73.3021
426.3000	73.3008
426.2000	73.3026
426.1000	73.3038
426.0000	73.3071
425.9000	73.3102
425.8000	73.3174
425.7000	73.3244
425.6000	73.328
425.5000	73.3455
425.4000	73.359
425.3000	73.3778
425.2000	73.3926
425.1000	73.4113
425.0000	73.4306
424.9000	73.4534
424.8000	73.4765
424.7000	73.5039
424.6000	73.5327
424.5000	73.5615
424.4000	73.5906
424.3000	73.6223
424.2000	73.6495
424.1000	73.6786
424.0000	73.7113
423.9000	73.7417
423.8000	73.7724
423.7000	73.7997
423.6000	73.83
423.5000	73.8564
423.4000	73.8858
423.3000	73.9069
423.2000	73.9296
423.1000	73.9501
423.0000	73.9642
422.9000	73.9817
422.8000	73.9961
422.7000	74.0089
422.6000	74.0203
422.5000	74.0326
422.4000	74.039
422.3000	74.0423
422.2000	74.0409
422.1000	74.0464
422.0000	74.0416
421.9000	74.0419
421.8000	74.0424
421.7000	74.0411
421.6000	74.0426
421.5000	74.0371
421.4000	74.0406
421.3000	74.0391
421.2000	74.0407
421.1000	74.0402
421.0000	74.0386
420.9000	74.0375
420.8000	74.0398
420.7000	74.0384
420.6000	74.0482
420.5000	74.0519
420.4000	74.0665
420.3000	74.074
420.2000	74.0788
420.1000	74.0962
420.0000	73.8829
419.9000	73.8968
419.8000	73.9121
419.7000	73.9274
419.6000	73.9514
419.5000	73.9695
419.4000	73.9847
419.3000	74.0031
419.2000	74.0173
419.1000	74.0394
419.0000	74.0591
418.9000	74.0831
418.8000	74.1039
418.7000	74.1267
418.6000	74.1404
418.5000	74.1544
418.4000	74.1652
418.3000	74.1736
418.2000	74.1808
418.1000	74.1897
418.0000	74.1936
417.9000	74.1999
417.8000	74.206
417.7000	74.2029
417.6000	74.2036
417.5000	74.2013
417.4000	74.2001
417.3000	74.1922
417.2000	74.1845
417.1000	74.1736
417.0000	74.1624
416.9000	74.1521
416.8000	74.1448
416.7000	74.1328
416.6000	74.1244
416.5000	74.1142
416.4000	74.1023
416.3000	74.0872
416.2000	74.0795
416.1000	74.0729
416.0000	74.0687
415.9000	74.0602
415.8000	74.0496
415.7000	74.0554
415.6000	74.0571
415.5000	74.0601
415.4000	74.0706
415.3000	74.0746
415.2000	74.0792
415.1000	74.0907
415.0000	74.1018
414.9000	74.1139
414.8000	74.1294
414.7000	74.1485
414.6000	74.1658
414.5000	74.1853
414.4000	74.2029
414.3000	74.2193
414.2000	74.2455
414.1000	74.2577
414.0000	74.2763
413.9000	74.2928
413.8000	74.3094
413.7000	74.3254
413.6000	74.3389
413.5000	74.3487
413.4000	74.3612
413.3000	74.3691
413.2000	74.3771
413.1000	74.3832
413.0000	74.3831
412.9000	74.3816
412.8000	74.3797
412.7000	74.3806
412.6000	74.3672
412.5000	74.3596
412.4000	74.3495
412.3000	74.3424
412.2000	74.3297
412.1000	74.3204
412.0000	74.3135
411.9000	74.3045
411.8000	74.2904
411.7000	74.285
411.6000	74.2714
411.5000	74.2632
411.4000	74.2592
411.3000	74.2557
411.2000	74.2517
411.1000	74.2566
411.0000	74.2594
410.9000	74.2654
410.8000	74.2709
410.7000	74.2733
410.6000	74.283
410.5000	74.2925
410.4000	74.2996
410.3000	74.3101
410.2000	74.3244
410.1000	74.3335
410.0000	74.3534
409.9000	74.3656
409.8000	74.3734
409.7000	74.3808
409.6000	74.3914
409.5000	74.3973
409.4000	74.4063
409.3000	74.4162
409.2000	74.4177
409.1000	74.4171
409.0000	74.4182
408.9000	74.4118
408.8000	74.4089
408.7000	74.4058
408.6000	74.4
408.5000	74.3926
408.4000	74.3743
408.3000	74.361
408.2000	74.3448
408.1000	74.3319
408.0000	74.317
407.9000	74.2988
407.8000	74.2803
407.7000	74.2531
407.6000	74.2337
407.5000	74.216
407.4000	74.1905
407.3000	74.1773
407.2000	74.157
407.1000	74.1317
407.0000	74.1103
406.9000	74.0948
406.8000	74.0773
406.7000	74.0615
406.6000	74.047
406.5000	74.029
406.4000	74.0097
406.3000	73.9918
406.2000	73.9741
406.1000	73.9647
406.0000	73.9587
405.9000	73.9523
405.8000	73.9472
405.7000	73.9379
405.6000	73.9276
405.5000	73.9254
405.4000	73.9197
405.3000	73.9102
405.2000	73.9025
405.1000	73.8975
405.0000	73.888
404.9000	73.8866
404.8000	73.8804
404.7000	73.8713
404.6000	73.8681
404.5000	73.8588
404.4000	73.841
404.3000	73.8327
404.2000	73.8113
404.1000	73.7917
404.0000	73.7779
403.9000	73.7573
403.8000	73.7369
403.7000	73.7154
403.6000	73.7
403.5000	73.6802
403.4000	73.6588
403.3000	73.6357
403.2000	73.6159
403.1000	73.599
403.0000	73.5763
402.9000	73.5572
402.8000	73.5434
402.7000	73.5155
402.6000	73.5016
402.5000	73.4891
402.4000	73.4757
402.3000	73.4616
402.2000	73.4515
402.1000	73.4373
402.0000	73.4196
401.9000	73.4031
401.8000	73.3958
401.7000	73.3835
401.6000	73.3637
401.5000	73.3511
401.4000	73.3404
401.3000	73.327
401.2000	73.3158
401.1000	73.301
401.0000	73.2858
400.9000	73.2654
400.8000	73.246
400.7000	73.2284
400.6000	73.2061
400.5000	73.1856
400.4000	73.1661
400.3000	73.1384
400.2000	73.1125
400.1000	73.0855
400.0000	73.07
399.9000	73.0444
399.8000	73.0178
399.7000	72.9848
399.6000	72.9521
399.5000	72.9271
399.4000	72.9002
399.3000	72.8729
399.2000	72.844
399.1000	72.8168
399.0000	72.7911
398.9000	72.7617
398.8000	72.7299
398.7000	72.7055
398.6000	72.6811
398.5000	72.6509
398.4000	72.6154
398.3000	72.5865
398.2000	72.555
398.1000	72.5274
398.0000	72.4946
397.9000	72.4682
397.8000	72.4391
397.7000	72.4071
397.6000	72.3705
397.5000	72.3388
397.4000	72.3023
397.3000	72.2758
397.2000	72.248
397.1000	72.2166
397.0000	72.1762
396.9000	72.1449
396.8000	72.1143
396.7000	72.0804
396.6000	72.0434
396.5000	72.0071
396.4000	71.9735
396.3000	71.9347
396.2000	71.892
396.1000	71.8525
396.0000	71.8174
395.9000	71.7688
395.8000	71.7279
395.7000	71.679
395.6000	71.6353
395.5000	71.5834
395.4000	71.5401
395.3000	71.4927
395.2000	71.4443
395.1000	71.3924
395.0000	71.3483
394.9000	71.3009
394.8000	71.2503
394.7000	71.1968
394.6000	71.1485
394.5000	71.0958
394.4000	71.0484
394.3000	71.0056
394.2000	70.9571
394.1000	70.9072
394.0000	70.8553
393.9000	70.8116
393.8000	70.7617
393.7000	70.7137
393.6000	70.6671
393.5000	70.6211
393.4000	70.5748
393.3000	70.5285
393.2000	70.4883
393.1000	70.4457
393.0000	70.4008
392.9000	70.3612
392.8000	70.315
392.7000	70.2632
392.6000	70.2159
392.5000	70.1716
392.4000	70.1269
392.3000	70.0825
392.2000	70.0414
392.1000	69.9949
392.0000	69.9535
391.9000	69.9064
391.8000	69.8544
391.7000	69.8068
391.6000	69.7526
391.5000	69.7068
391.4000	69.6583
391.3000	69.6106
391.2000	69.5626
391.1000	69.5144
391.0000	69.4647
390.9000	69.4159
390.8000	69.3643
390.7000	69.3115
390.6000	69.2559
390.5000	69.1991
390.4000	69.1411
390.3000	69.0888
390.2000	69.0388
390.1000	68.9892
390.0000	68.9352
389.9000	68.8813
389.8000	68.825
389.7000	68.7753
389.6000	68.7206
389.5000	68.6743
389.4000	68.6232
389.3000	68.5725
389.2000	68.5242
389.1000	68.4754
389.0000	68.425
388.9000	68.3782
388.8000	68.325
388.7000	68.2738
388.6000	68.2164
388.5000	68.1573
388.4000	68.1042
388.3000	68.0456
388.2000	67.9962
388.1000	67.9357
388.0000	67.8739
387.9000	67.8077
387.8000	67.7459
387.7000	67.6823
387.6000	67.6183
387.5000	67.5544
387.4000	67.4933
387.3000	67.4278
387.2000	67.3659
387.1000	67.2975
387.0000	67.2342
386.9000	67.1728
386.8000	67.1092
386.7000	67.045
386.6000	66.9732
386.5000	66.9035
386.4000	66.8444
386.3000	66.7871
386.2000	66.7256
386.1000	66.6691
386.0000	66.6078
385.9000	66.5449
385.8000	66.4779
385.7000	66.4169
385.6000	66.3524
385.5000	66.292
385.4000	66.2325
385.3000	66.1697
385.2000	66.0985
385.1000	66.0295
385.0000	65.9645
384.9000	65.9023
384.8000	65.8293
384.7000	65.7531
384.6000	65.6832
384.5000	65.6096
384.4000	65.5289
384.3000	65.4575
384.2000	65.3809
384.1000	65.3033
384.0000	65.2273
383.9000	65.155
383.8000	65.0756
383.7000	64.9952
383.6000	64.923
383.5000	64.8428
383.4000	64.7677
383.3000	64.6827
383.2000	64.6062
383.1000	64.5315
383.0000	64.4508
382.9000	64.3666
382.8000	64.2907
382.7000	64.204
382.6000	64.127
382.5000	64.0479
382.4000	63.9628
382.3000	63.871
382.2000	63.7852
382.1000	63.7001
382.0000	63.6095
381.9000	63.5208
381.8000	63.4309
381.7000	63.3453
381.6000	63.2519
381.5000	63.1569
381.4000	63.0603
381.3000	62.9621
381.2000	62.8663
381.1000	62.7728
381.0000	62.6732
380.9000	62.5771
380.8000	62.4816
380.7000	62.387
380.6000	62.2891
380.5000	62.1891
380.4000	62.0875
380.3000	61.9913
380.2000	61.8842
380.1000	61.7803
380.0000	61.6751
379.9000	61.5735
379.8000	61.4678
379.7000	61.3672
379.6000	61.2628
379.5000	61.1485
379.4000	61.0404
379.3000	60.9209
379.2000	60.8051
379.1000	60.6837
379.0000	60.5629
378.9000	60.4387
378.8000	60.3165
378.7000	60.1984
378.6000	60.0772
378.5000	59.951
378.4000	59.826
378.3000	59.6948
378.2000	59.5691
378.1000	59.4348
378.0000	59.3003
377.9000	59.17
377.8000	59.0321
377.7000	58.8983
377.6000	58.759
377.5000	58.6219
377.4000	58.4809
377.3000	58.3354
377.2000	58.187
377.1000	58.0286
377.0000	57.8789
376.9000	57.7236
376.8000	57.5673
376.7000	57.4072
376.6000	57.2464
376.5000	57.0777
376.4000	56.9093
376.3000	56.7371
376.2000	56.5672
376.1000	56.3882
376.0000	56.2087
375.9000	56.022
375.8000	55.833
375.7000	55.6426
375.6000	55.4548
375.5000	55.2608
375.4000	55.0558
375.3000	54.8469
375.2000	54.6358
375.1000	54.4174
375.0000	54.19
374.9000	53.9663
374.8000	53.7314
374.7000	53.4893
374.6000	53.2425
374.5000	52.9944
374.4000	52.7343
374.3000	52.4694
374.2000	52.2033
374.1000	51.9319
374.0000	51.6422
373.9000	51.3467
373.8000	51.0459
373.7000	50.745
373.6000	50.4333
373.5000	50.1132
373.4000	49.7854
373.3000	49.4456
373.2000	49.0962
373.1000	48.7427
373.0000	48.3785
372.9000	48.0039
372.8000	47.6247
372.7000	47.2408
372.6000	46.8398
372.5000	46.429
372.4000	46.0149
372.3000	45.5936
372.2000	45.1656
372.1000	44.7183
372.0000	44.2609
371.9000	43.7973
371.8000	43.3284
371.7000	42.8532
371.6000	42.3689
371.5000	41.8744
371.4000	41.3647
371.3000	40.8542
371.2000	40.3314
371.1000	39.7952
371.0000	39.2544
370.9000	38.7102
370.8000	38.1523
370.7000	37.5841
370.6000	37.0064
370.5000	36.4246
370.4000	35.8364
370.3000	35.2373
370.2000	34.6333
370.1000	34.0197
370.0000	31.0993
369.9000	30.4698
369.8000	29.8413
369.7000	29.2123
369.6000	28.58
369.5000	27.9373
369.4000	27.2924
369.3000	26.6445
369.2000	25.9971
369.1000	25.3489
369.0000	24.7007
368.9000	24.0538
368.8000	23.4091
368.7000	22.7669
368.6000	22.1276
368.5000	21.4914
368.4000	20.8526
368.3000	20.2244
368.2000	19.5985
368.1000	18.9774
368.0000	18.3587
367.9000	17.7525
367.8000	17.1528
367.7000	16.564
367.6000	15.9774
367.5000	15.403
367.4000	14.835
367.3000	14.2758
367.2000	13.7304
367.1000	13.1929
367.0000	12.6623
366.9000	12.1412
366.8000	11.6367
366.7000	11.1442
366.6000	10.6595
366.5000	10.1823
366.4000	9.7205
366.3000	9.27204
366.2000	8.83655
366.1000	8.40954
366.0000	7.99493
365.9000	7.58908
365.8000	7.19995
365.7000	6.82548
365.6000	6.45954
365.5000	6.10491
365.4000	5.76462
365.3000	5.4383
365.2000	5.12241
365.1000	4.81747
365.0000	4.52671
364.9000	4.24937
364.8000	3.98147
364.7000	3.72458
364.6000	3.47778
364.5000	3.24187
364.4000	3.0186
364.3000	2.80684
364.2000	2.60353
364.1000	2.40917
364.0000	2.22635
363.9000	2.05374
363.8000	1.89029
363.7000	1.73631
363.6000	1.59318
363.5000	1.45759
363.4000	1.32967
363.3000	1.20975
363.2000	1.09907
363.1000	0.995996
363.0000	0.899792
362.9000	0.811947
362.8000	0.730625
362.7000	0.655088
362.6000	0.585944
362.5000	0.522896
362.4000	0.465011
362.3000	0.412496
362.2000	0.364728
362.1000	0.321648
362.0000	0.282555
361.9000	0.247677
361.8000	0.216535
361.7000	0.188934
361.6000	0.163933
361.5000	0.141812
361.4000	0.122281
361.3000	0.105253
361.2000	0.0903387
361.1000	0.077427
361.0000	0.0660655
360.9000	0.0564106
360.8000	0.047971
360.7000	0.0408452
360.6000	0.0346117
360.5000	0.0293134
360.4000	0.0249376
360.3000	0.0212783
360.2000	0.01824
360.1000	0.0157476
360.0000	0.0136523
359.9000	0.0118822
359.8000	0.0105587
359.7000	0.00946027
359.6000	0.00846026
359.5000	0.00773476
359.4000	0.00710999
359.3000	0.00646239
359.2000	0.00601291
359.1000	0.00566174
359.0000	0.00536352
358.9000	0.00511374
358.8000	0.00483845
358.7000	0.00468789
358.6000	0.00456282
358.5000	0.00436237
358.4000	0.00416182
358.3000	0.00401129
358.2000	0.0039592
358.1000	0.003908
358.0000	0.00383427
357.9000	0.00368529
357.8000	0.00351043
357.7000	0.00348413
357.6000	0.003458
357.5000	0.00333375
357.4000	0.00328416
357.3000	0.00316185
357.2000	0.00316208
357.1000	0.00306452
357.0000	0.00296652
356.9000	0.00296603
356.8000	0.00296617
356.7000	0.00291793
356.6000	0.0027962
356.5000	0.00267428
356.4000	0.00262505
356.3000	0.00252742
356.2000	0.00252735
356.1000	0.0024539
356.0000	0.00238046
355.9000	0.00230695
355.8000	0.00233157
355.7000	0.0022826
355.6000	0.00218516
355.5000	0.00220999
355.4000	0.00221097
355.3000	0.00218625
355.2000	0.00213743
355.1000	0.00213698
355.0000	0.00211265
354.9000	0.00203928
354.8000	0.00203843
354.7000	0.00206256
354.6000	0.00201454
354.5000	0.00199052
354.4000	0.00191739
354.3000	0.00191696
354.2000	0.00179404
354.1000	0.00181887
354.0000	0.00184305
353.9000	0.00179427
353.8000	0.00169624
353.7000	0.00159876
353.6000	0.00150111
353.5000	0.00147721
353.4000	0.00145271
353.3000	0.0014281
353.2000	0.00140458
353.1000	0.00135591
353.0000	0.00138034
352.9000	0.00130661
352.8000	0.00133082
352.7000	0.00130611
352.6000	0.00138014
352.5000	0.00133191
352.4000	0.00130828
352.3000	0.00128373
352.2000	0.00123394
352.1000	0.00125861
352.0000	0.00130762
351.9000	0.0013071
351.8000	0.00133247
351.7000	0.00135761
351.6000	0.00133302
351.5000	0.00138139
351.4000	0.00130766
351.3000	0.00135732
351.2000	0.00135727
351.1000	0.0014066
351.0000	0.00140612
350.9000	0.00140579
350.8000	0.00140543
350.7000	0.00140536
350.6000	0.00140583
350.5000	0.00142975
350.4000	0.00142958
350.3000	0.00138135
350.2000	0.00125879
350.1000	0.00128251
350.0000	0.00128213
349.9000	0.00120918
349.8000	0.00123411
349.7000	0.00116071
349.6000	0.00116093
349.5000	0.00108765
349.4000	0.00101467
349.3000	0.00101422
349.2000	0.000940177
349.1000	0.000866183
349.0000	0.000939476
348.9000	0.000890888
348.8000	0.000867376
348.7000	0.000818566
348.6000	0.000891526
348.5000	0.000867333
348.4000	0.00086752
348.3000	0.000867473
348.2000	0.000793662
348.1000	0.000866778
348.0000	0.000842556
347.9000	0.000891236
347.8000	0.0008909
347.7000	0.000866558
347.6000	0.00094034
347.5000	0.000990879
347.4000	0.0010156
347.3000	0.00104016
347.2000	0.00111239
347.1000	0.00116053
347.0000	0.00113662
346.9000	0.00111221
346.8000	0.00108826
346.7000	0.00108845
346.6000	0.00111264
346.5000	0.00108803
346.4000	0.00106352
346.3000	0.00103968
346.2000	0.00106405
346.1000	0.00106398
346.0000	0.00101452
345.9000	0.00098964
345.8000	0.000940472
345.7000	0.000891619
345.6000	0.000793947
345.5000	0.000794124
345.4000	0.000818198
345.3000	0.000867426
345.2000	0.000891583
345.1000	0.000940369
345.0000	0.00096544
344.9000	0.00089202
344.8000	0.000916146
344.7000	0.000915877
344.6000	0.000916474
344.5000	0.00094115
344.4000	0.000941476
344.3000	0.000965955
344.2000	0.000990879
344.1000	0.00101521
344.0000	0.000990608
343.9000	0.00101443
343.8000	0.000989816
343.7000	0.000989474
343.6000	0.000989644
343.5000	0.000940471
343.4000	0.000891201
343.3000	0.000988916
343.2000	0.00101342
343.1000	0.000988666
343.0000	0.000988542
342.9000	0.00096381
342.8000	0.000987753
342.7000	0.00101153
342.6000	0.000987232
342.5000	0.00098751
342.4000	0.00101218
342.3000	0.00101335
342.2000	0.00106256
342.1000	0.0010622
342.0000	0.00106193
341.9000	0.00106198
341.8000	0.00113556
341.7000	0.00111102
341.6000	0.00108688
341.5000	0.00111218
341.4000	0.00113656
341.3000	0.00111296
341.2000	0.00116242
341.1000	0.00111346
341.0000	0.00113736
340.9000	0.00111281
340.8000	0.00113726
340.7000	0.00108812
340.6000	0.00106354
340.5000	0.00103877
340.4000	0.001039
340.3000	0.00106383
340.2000	0.00106384
340.1000	0.00106366
340.0000	0.00911561
339.9000	0.00908935
339.8000	0.00896481
339.7000	0.00893999
339.6000	0.00888904
339.5000	0.00888813
339.4000	0.0088633
339.3000	0.00893716
339.2000	0.00891331
339.1000	0.00888553
339.0000	0.0088841
338.9000	0.00886153
338.8000	0.00876179
338.7000	0.00878382
338.6000	0.00880561
338.5000	0.00875501
338.4000	0.00870728
338.3000	0.0086594
338.2000	0.0086829
338.1000	0.00863297
338.0000	0.00860929
337.9000	0.00850946
337.8000	0.00853376
337.7000	0.00843531
337.6000	0.00845735
337.5000	0.00848197
337.4000	0.00850428
337.3000	0.00842725
337.2000	0.00847691
337.1000	0.00832963
337.0000	0.00832975
336.9000	0.0083532
336.8000	0.00840132
336.7000	0.00835177
336.6000	0.0082535
336.5000	0.00827813
336.4000	0.008326
336.3000	0.00832713
336.2000	0.00830163
336.1000	0.00830073
336.0000	0.00827635
335.9000	0.00829803
335.8000	0.00829686
335.7000	0.00827329
335.6000	0.0082718
335.5000	0.00834443
335.4000	0.00819551
335.3000	0.00814647
335.2000	0.00802372
335.1000	0.00802343
335.0000	0.00804543
334.9000	0.00802034
334.8000	0.00794573
334.7000	0.00784527
334.6000	0.00784289
334.5000	0.0077919
334.4000	0.0077422
334.3000	0.00766894
334.2000	0.00764511
334.1000	0.00756987
334.0000	0.00747066
333.9000	0.00732286
333.8000	0.00734648
333.7000	0.00739543
333.6000	0.00737004
333.5000	0.00736917
333.4000	0.00732025
333.3000	0.00726894
333.2000	0.00719456
333.1000	0.00717176
333.0000	0.0070493
332.9000	0.00707257
332.8000	0.00711988
332.7000	0.00712068
332.6000	0.00702066
332.5000	0.00709451
332.4000	0.00716649
332.3000	0.0072392
332.2000	0.0072391
332.1000	0.00721407
332.0000	0.00721198
331.9000	0.00716043
331.8000	0.00718277
331.7000	0.00715883
331.6000	0.0072819
331.5000	0.00718254
331.4000	0.00713192
331.3000	0.00713277
331.2000	0.00708432
331.1000	0.0070832
331.0000	0.00705895
330.9000	0.00698278
330.8000	0.00693371
330.7000	0.00685975
330.6000	0.00690784
330.5000	0.00685797
330.4000	0.00681115
330.3000	0.00683477
330.2000	0.0068592
330.1000	0.00683227
330.0000	0.00665679
329.9000	0.00682689
329.8000	0.00682746
329.7000	0.00667908
329.6000	0.00658029
329.5000	0.00650544
329.4000	0.00650351
329.3000	0.00655193
329.2000	0.00650384
329.1000	0.00660091
329.0000	0.00652796
328.9000	0.00650222
328.8000	0.00652271
328.7000	0.00654887
328.6000	0.0064517
328.5000	0.0064524
328.4000	0.00652614
328.3000	0.00647681
328.2000	0.0065497
328.1000	0.00652524
328.0000	0.00662356
327.9000	0.00664756
327.8000	0.00664819
327.7000	0.00655073
327.6000	0.00654708
327.5000	0.00649887
327.4000	0.00654731
327.3000	0.00657075
327.2000	0.00654694
327.1000	0.00644851
327.0000	0.00647293
326.9000	0.00644894
326.8000	0.00644889
326.7000	0.00640027
326.6000	0.00635194
326.5000	0.00640048
326.4000	0.00632518
326.3000	0.006324
326.2000	0.006349
326.1000	0.00637382
326.0000	0.00639953
325.9000	0.00637299
325.8000	0.00637031
325.7000	0.00629607
325.6000	0.00627082
325.5000	0.00624591
325.4000	0.0062923
325.3000	0.00631563
325.2000	0.00629008
325.1000	0.00636145
325.0000	0.00643214
324.9000	0.00648121
324.8000	0.00650691
324.7000	0.00643425
324.6000	0.00643235
324.5000	0.00643195
324.4000	0.00638205
324.3000	0.00633245
324.2000	0.00625966
324.1000	0.00626003
324.0000	0.00621248
323.9000	0.00623631
323.8000	0.00623787
323.7000	0.00618666
323.6000	0.00618764
323.5000	0.00606613
323.4000	0.00594569
323.3000	0.00584667
323.2000	0.00581907
323.1000	0.00584234
323.0000	0.00579512
322.9000	0.00577041
322.8000	0.00574583
322.7000	0.00577059
322.6000	0.00579418
322.5000	0.0057928
322.4000	0.00576689
322.3000	0.00571728
322.2000	0.00557117
322.1000	0.00562076
322.0000	0.00554617
321.9000	0.00556927
321.8000	0.00561672
321.7000	0.00556868
321.6000	0.00559475
321.5000	0.00554448
321.4000	0.00554258
321.3000	0.00546688
321.2000	0.00536897
321.1000	0.00529503
321.0000	0.00524678
320.9000	0.00522381
320.8000	0.00534679
320.7000	0.00529774
320.6000	0.00524639
320.5000	0.0051734
320.4000	0.00517378
320.3000	0.00509964
320.2000	0.00509833
320.1000	0.00512225
320.0000	0.00507472
319.9000	0.00507628
319.8000	0.00505003
319.7000	0.00507662
319.6000	0.00512636
319.5000	0.00520063
319.4000	0.00515059
319.3000	0.00517324
319.2000	0.00509917
319.1000	0.00514913
319.0000	0.00519923
318.9000	0.00514926
318.8000	0.00512421
318.7000	0.00514865
318.6000	0.00507635
318.5000	0.00512473
318.4000	0.00509786
318.3000	0.00507362
318.2000	0.00505034
318.1000	0.00500058
318.0000	0.00499919
317.9000	0.00494915
317.8000	0.00497511
317.7000	0.00495087
317.6000	0.00492564
317.5000	0.00492453
317.4000	0.00497227
317.3000	0.00497487
317.2000	0.00504817
317.1000	0.00509788
317.0000	0.00504946
316.9000	0.0050257
316.8000	0.00497873
316.7000	0.0049788
316.6000	0.00500244
316.5000	0.00507548
316.4000	0.00507559
316.3000	0.00502751
316.2000	0.00500157
316.1000	0.00490387
316.0000	0.00485679
315.9000	0.00483266
315.8000	0.00473431
315.7000	0.00473311
315.6000	0.00461091
315.5000	0.00451426
315.4000	0.00453735
315.3000	0.00448641
315.2000	0.00455773
315.1000	0.00453291
315.0000	0.00448574
314.9000	0.00438702
314.8000	0.00433608
314.7000	0.00438493
314.6000	0.00438724
314.5000	0.00438812
314.4000	0.00441068
314.3000	0.00435976
314.2000	0.00438404
314.1000	0.00433518
314.0000	0.00433439
313.9000	0.00433292
313.8000	0.00433224
313.7000	0.00438075
313.6000	0.00433242
313.5000	0.00433275
313.4000	0.00433113
313.3000	0.00440495
313.2000	0.0043823
313.1000	0.00438043
313.0000	0.00435266
312.9000	0.00437555
312.8000	0.00430086
312.7000	0.00427746
312.6000	0.00435082
312.5000	0.00437302
312.4000	0.00442182
312.3000	0.00439551
312.2000	0.00444444
312.1000	0.00437098
312.0000	0.00444323
311.9000	0.00446691
311.8000	0.00434636
311.7000	0.00429613
311.6000	0.00427205
311.5000	0.00419918
311.4000	0.00419781
311.3000	0.00419688
311.2000	0.00424652
311.1000	0.0042226
311.0000	0.00414813
310.9000	0.00409948
310.8000	0.00405028
310.7000	0.00410047
310.6000	0.00402827
310.5000	0.0040293
310.4000	0.00388259
310.3000	0.00385654
310.2000	0.00392786
310.1000	0.00392793
310.0000	0.00400012
309.9000	0.00402253
309.8000	0.0039768
309.7000	0.00397684
309.6000	0.00392759
309.5000	0.003999
309.4000	0.00392605
309.3000	0.00397537
309.2000	0.00387808
309.1000	0.00385207
309.0000	0.0038488
308.9000	0.00384736
308.8000	0.0038706
308.7000	0.0038452
308.6000	0.00379652
308.5000	0.00377008
308.4000	0.00374486
308.3000	0.00377226
308.2000	0.00377032
308.1000	0.00376998
308.0000	0.00377002
307.9000	0.00376994
307.8000	0.00384306
307.7000	0.00381664
307.6000	0.0038897
307.5000	0.00388958
307.4000	0.00391455
307.3000	0.00389137
307.2000	0.0038912
307.1000	0.00389196
307.0000	0.00389046
306.9000	0.00391579
306.8000	0.00381841
306.7000	0.00376871
306.6000	0.00374392
306.5000	0.00364522
306.4000	0.00369383
306.3000	0.00366762
306.2000	0.0035698
306.1000	0.00352105
306.0000	0.00342502
305.9000	0.00342451
305.8000	0.00342507
305.7000	0.00344814
305.6000	0.00351942
305.5000	0.00347151
305.4000	0.00349556
305.3000	0.00347193
305.2000	0.00351887
305.1000	0.00349424
305.0000	0.00349399
304.9000	0.00358924
304.8000	0.00356568
304.7000	0.00354218
304.6000	0.00361435
304.5000	0.00363737
304.4000	0.00375779
304.3000	0.00373299
304.2000	0.00361127
304.1000	0.00358685
304.0000	0.00349139
303.9000	0.00349101
303.8000	0.00349063
303.7000	0.00341889
303.6000	0.00346606
303.5000	0.00344193
303.4000	0.00351319
303.3000	0.0034661
303.2000	0.00344153
303.1000	0.0033931
303.0000	0.0033691
302.9000	0.00336919
302.8000	0.00329739
302.7000	0.00332035
302.6000	0.00341514
302.5000	0.00343925
302.4000	0.00341532
302.3000	0.00336771
302.2000	0.00341454
302.1000	0.00348512
302.0000	0.00348502
301.9000	0.00353274
301.8000	0.00343721
301.7000	0.00345962
301.6000	0.00343565
301.5000	0.00350684
301.4000	0.0035061
301.3000	0.00350642
301.2000	0.00350662
301.1000	0.00348297
301.0000	0.00345879
300.9000	0.00345844
300.8000	0.00343455
300.7000	0.00345732
300.6000	0.00343357
300.5000	0.00343351
300.4000	0.00336208
300.3000	0.00331398
300.2000	0.00331384
300.1000	0.00321938
300.0000	0.00321898
299.9000	0.0031234
299.8000	0.00314756
299.7000	0.00309984
299.6000	0.00309954
299.5000	0.00302844
299.4000	0.00298085
299.3000	0.00293341
299.2000	0.00290944
299.1000	0.00290972
299.0000	0.00281459
298.9000	0.00269577
298.8000	0.00271925
298.7000	0.00279038
298.6000	0.00276609
298.5000	0.0028367
298.4000	0.0028125
298.3000	0.00288354
298.2000	0.00281199
298.1000	0.00288209
298.0000	0.00285833
297.9000	0.00292971
297.8000	0.00295317
297.7000	0.00290454
297.6000	0.00295203
297.5000	0.00288116
297.4000	0.00290458
297.3000	0.00295156
297.2000	0.00290442
297.1000	0.0028327
297.0000	0.00285664
296.9000	0.00278561
296.8000	0.00280955
296.7000	0.00276215
296.6000	0.00276213
296.5000	0.00271516
296.4000	0.00271466
296.3000	0.00269039
296.2000	0.00266619
296.1000	0.00266679
296.0000	0.00264254
295.9000	0.00266553
295.8000	0.00268885
295.7000	0.00268912
295.6000	0.00264176
295.5000	0.00257065
295.4000	0.00256979
295.3000	0.00254568
295.2000	0.00254546
295.1000	0.00252199
295.0000	0.00249739
294.9000	0.00249766
294.8000	0.00242675
294.7000	0.00237964
294.6000	0.00240338
294.5000	0.00237934
294.4000	0.00235537
294.3000	0.00240298
294.2000	0.00235657
294.1000	0.0022854
294.0000	0.00228491
293.9000	0.00228473
293.8000	0.00228443
293.7000	0.00233191
293.6000	0.00228439
293.5000	0.00226015
293.4000	0.00230844
293.3000	0.00221305
293.2000	0.00223649
293.1000	0.00218829
293.0000	0.00211741
292.9000	0.0021407
292.8000	0.0021166
292.7000	0.00204524
292.6000	0.0020684
292.5000	0.00206794
292.4000	0.0021154
292.3000	0.00213903
292.2000	0.00211576
292.1000	0.00211523
292.0000	0.00209151
291.9000	0.0020681
291.8000	0.00199603
291.7000	0.00197219
291.6000	0.00197269
291.5000	0.00202018
291.4000	0.00201988
291.3000	0.0020202
291.2000	0.00204448
291.1000	0.00202148
291.0000	0.00192641
290.9000	0.00197403
290.8000	0.00192673
290.7000	0.00187971
290.6000	0.00188007
290.5000	0.00183261
290.4000	0.00188009
290.3000	0.00190366
290.2000	0.00185655
290.1000	0.00185631
290.0000	0.00190291
289.9000	0.00187926
289.8000	0.00190307
289.7000	0.0019035
289.6000	0.00187951
289.5000	0.00187871
289.4000	0.0019261
289.3000	0.00185464
289.2000	0.00187784
289.1000	0.001925
289.0000	0.00190102
288.9000	0.00192472
288.8000	0.00187738
288.7000	0.00183019
288.6000	0.0018778
288.5000	0.00194948
288.4000	0.0018788
288.3000	0.00183127
288.2000	0.00178338
288.1000	0.00175947
288.0000	0.0017356
287.9000	0.00173615
287.8000	0.0017121
287.7000	0.00173562
287.6000	0.00171222
287.5000	0.00168877
287.4000	0.00166517
287.3000	0.00159432
287.2000	0.00159416
287.1000	0.00156998
287.0000	0.00164058
286.9000	0.0015928
286.8000	0.00156932
286.7000	0.00159343
286.6000	0.00159351
286.5000	0.00154609
286.4000	0.00154529
286.3000	0.00159198
286.2000	0.00161591
286.1000	0.00166382
286.0000	0.0016402
285.9000	0.00161631
285.8000	0.00168683
285.7000	0.00173436
285.6000	0.0017814
285.5000	0.00182905
285.4000	0.00171123
285.3000	0.00171118
285.2000	0.00173458
285.1000	0.00175784
285.0000	0.00173439
284.9000	0.0017574
284.8000	0.00173433
284.7000	0.00173493
284.6000	0.00168792
284.5000	0.00161671
284.4000	0.00161621
284.3000	0.00168728
284.2000	0.00159273
284.1000	0.00152131
284.0000	0.00145036
283.9000	0.00147387
283.8000	0.00147355
283.7000	0.0015208
283.6000	0.00152069
283.5000	0.00149671
283.4000	0.00154442
283.3000	0.00156859
283.2000	0.00159256
283.1000	0.00159219
283.0000	0.00161525
282.9000	0.00163897
282.8000	0.00168599
282.7000	0.00161462
282.6000	0.00161444
282.5000	0.00161438
282.4000	0.00163783
282.3000	0.00159097
282.2000	0.00159074
282.1000	0.0015436
282.0000	0.00151979
281.9000	0.00152043
281.8000	0.00149586
281.7000	0.00151926
281.6000	0.00147248
281.5000	0.0014013
281.4000	0.00140108
281.3000	0.00140102
281.2000	0.00140197
281.1000	0.00140179
281.0000	0.00137852
280.9000	0.00140216
280.8000	0.0013788
280.7000	0.00135473
280.6000	0.00140201
280.5000	0.00144942
280.4000	0.00144942
280.3000	0.00140138
280.2000	0.00140208
280.1000	0.00133104
280.0000	0.00142549
279.9000	0.001449
279.8000	0.00149698
279.7000	0.00142576
279.6000	0.00135391
279.5000	0.00133052
279.4000	0.00137731
279.3000	0.00142435
279.2000	0.00144792
279.1000	0.00147107
279.0000	0.00147125
278.9000	0.00137602
278.8000	0.00139977
278.7000	0.00142364
278.6000	0.00144674
278.5000	0.00147021
278.4000	0.00144665
278.3000	0.00147044
278.2000	0.00147001
278.1000	0.00149369
278.0000	0.00149389
277.9000	0.00149347
277.8000	0.00151741
277.7000	0.00144683
277.6000	0.00139894
277.5000	0.00139894
277.4000	0.00139808
277.3000	0.00144592
277.2000	0.00144639
277.1000	0.00144665
277.0000	0.00139938
276.9000	0.00137582
276.8000	0.001328
276.7000	0.00123341
276.6000	0.00118579
276.5000	0.00120975
276.4000	0.00116205
276.3000	0.00118523
276.2000	0.00111407
276.1000	0.00116158
276.0000	0.00116214
275.9000	0.00116216
275.8000	0.00116275
275.7000	0.00111498
275.6000	0.00111395
275.5000	0.00111384
275.4000	0.00113763
275.3000	0.00111426
275.2000	0.00113795
275.1000	0.00116097
275.0000	0.00118436
274.9000	0.0012311
274.8000	0.00127854
274.7000	0.00125543
274.6000	0.00134983
274.5000	0.00130278
274.4000	0.00125563
274.3000	0.001232
274.2000	0.00123203
274.1000	0.00132643
274.0000	0.00132698
273.9000	0.00139735
273.8000	0.00139689
273.7000	0.00144396
273.6000	0.00142021
273.5000	0.00142025
273.4000	0.0014439
273.3000	0.00137243
273.2000	0.00139685
273.1000	0.00139694
273.0000	0.00134915
272.9000	0.00139516
272.8000	0.00146583
272.7000	0.00144222
272.6000	0.00139482
272.5000	0.00134803
272.4000	0.00132458
272.3000	0.00125406
272.2000	0.00120693
272.1000	0.00118329
272.0000	0.00123014
271.9000	0.00125364
271.8000	0.00118335
271.7000	0.00120787
271.6000	0.00125418
271.5000	0.00127755
271.4000	0.00127769
271.3000	0.00125498
271.2000	0.00123087
271.1000	0.00132508
271.0000	0.00137173
270.9000	0.00132454
270.8000	0.00132409
270.7000	0.00137098
270.6000	0.00141765
270.5000	0.00144095
270.4000	0.00141781
270.3000	0.00137112
270.2000	0.00134644
270.1000	0.00136926
270.0000	0.00125135
269.9000	0.0012043
269.8000	0.00115763
269.7000	0.00113355
269.6000	0.00115756
269.5000	0.00113435
269.4000	0.00108783
269.3000	0.00111085
269.2000	0.00111095
269.1000	0.00113445
269.0000	0.00111144
268.9000	0.00108782
268.8000	0.00106405
268.7000	0.00113456
268.6000	0.00118324
268.5000	0.00116004
268.4000	0.00118369
268.3000	0.00123062
268.2000	0.00123002
268.1000	0.00118292
268.0000	0.00115942
267.9000	0.00111241
267.8000	0.00115961
267.7000	0.00116011
267.6000	0.00118357
267.5000	0.00111293
267.4000	0.00113601
267.3000	0.00113605
267.2000	0.0011366
267.1000	0.00113704
267.0000	0.00111276
266.9000	0.00115927
266.8000	0.0012064
266.7000	0.00118273
266.6000	0.00123075
266.5000	0.00132579
266.4000	0.00130188
266.3000	0.00130116
266.2000	0.00122966
266.1000	0.00125292
266.0000	0.00122926
265.9000	0.00122927
265.8000	0.00118276
265.7000	0.00120658
265.6000	0.0012533
265.5000	0.00120573
265.4000	0.00118175
265.3000	0.00115879
265.2000	0.00111151
265.1000	0.00113528
265.0000	0.00111141
264.9000	0.00106357
264.8000	0.00104005
264.7000	0.00104039
264.6000	0.00106471
264.5000	0.00111224
264.4000	0.0010889
264.3000	0.00108955
264.2000	0.00108917
264.1000	0.00108847
264.0000	0.000993926
263.9000	0.0010177
263.8000	0.00106485
263.7000	0.00104075
263.6000	0.00104062
263.5000	0.00101763
263.4000	0.00101827
263.3000	0.00101807
263.2000	0.00106533
263.1000	0.00104192
263.0000	0.00106522
262.9000	0.00094673
262.8000	0.000923065
262.7000	0.000923194
262.6000	0.000947096
262.5000	0.000924191
262.4000	0.00094732
262.3000	0.000970467
262.2000	0.00092393
262.1000	0.000948321
262.0000	0.000948522
261.9000	0.000947892
261.8000	0.000899652
261.7000	0.000923058
261.6000	0.000970128
261.5000	0.00101738
261.4000	0.000970215
261.3000	0.00104133
261.2000	0.00106488
261.1000	0.00108793
261.0000	0.0010403
260.9000	0.00106393
260.8000	0.00106483
260.7000	0.00106554
260.6000	0.00111198
260.5000	0.00104083
260.4000	0.00106406
260.3000	0.00108788
260.2000	0.00118291
260.1000	0.00123055
260.0000	0.0011598
259.9000	0.00108874
259.8000	0.00111245
259.7000	0.00104097
259.6000	0.00108766
259.5000	0.00101663
259.4000	0.00104084
259.3000	0.0010174
259.2000	0.000993272
259.1000	0.00101634
259.0000	0.000969676
258.9000	0.000992779
258.8000	0.000993086
258.7000	0.00101667
258.6000	0.000922136
258.5000	0.000874637
258.4000	0.000850587
258.3000	0.000897788
258.2000	0.000897513
258.1000	0.000921779
258.0000	0.000852132
257.9000	0.000899555
257.8000	0.000922663
257.7000	0.000945729
257.6000	0.00104028
257.5000	0.00101716
257.4000	0.00101695
257.3000	0.00101777
257.2000	0.000994504
257.1000	0.000947155
257.0000	0.000994178
256.9000	0.00106517
256.8000	0.00113697
256.7000	0.00109001
256.6000	0.00111376
256.5000	0.0011844
256.4000	0.00123129
256.3000	0.00123074
256.2000	0.00120719
256.1000	0.00116082
256.0000	0.00109021
255.9000	0.00104301
255.8000	0.00109027
255.7000	0.00113723
255.6000	0.00113653
255.5000	0.00116025
255.4000	0.0011846
255.3000	0.00111361
255.2000	0.00108967
255.1000	0.00116039
255.0000	0.00116096
254.9000	0.00111425
254.8000	0.00108999
254.7000	0.00111398
254.6000	0.00116207
254.5000	0.00118554
254.4000	0.00120868
254.3000	0.00125629
254.2000	0.00123274
254.1000	0.00120952
254.0000	0.00121059
253.9000	0.00116355
253.8000	0.00116307
253.7000	0.00118717
253.6000	0.00121094
253.5000	0.00121126
253.4000	0.00118778
253.3000	0.00118751
253.2000	0.00121195
253.1000	0.0012123
253.0000	0.00121162
252.9000	0.00121138
252.8000	0.0012118
252.7000	0.00116424
252.6000	0.00118842
252.5000	0.00121186
252.4000	0.00123522
252.3000	0.00125886
252.2000	0.00125886
252.1000	0.00123499
252.0000	0.00123511
251.9000	0.00121205
251.8000	0.00123514
251.7000	0.00121127
251.6000	0.00118692
251.5000	0.00118705
251.4000	0.00118694
251.3000	0.001187
251.2000	0.00118724
251.1000	0.00116351
251.0000	0.00113946
250.9000	0.00113951
250.8000	0.00116293
250.7000	0.00120984
250.6000	0.001234
250.5000	0.00128177
250.4000	0.00125815
250.3000	0.00125791
250.2000	0.0012337
250.1000	0.00123361
250.0000	0.00121022
