TITLE	13.5_NP_0
DATA TYPE	ULTRAVIOLET SPECTRUM
ORIGIN	JASCO
OWNER	
DATE	21/05/03
TIME	15:07:21
SPECTROMETER/DATA SYSTEM	
RESOLUTION	
DELTAX	-0.1
XUNITS	NANOMETERS
YUNITS	TRANSMITTANCE
FIRSTX	  850.0000
LASTX	  250.0000
NPOINTS	    6001
FIRSTY	    80.20235
MAXY	    85.13300
MINY	     0.00002
XYDATA
850.0000	80.2024
849.9000	80.3656
849.8000	80.5148
849.7000	80.6503
849.6000	80.7979
849.5000	80.9358
849.4000	81.0773
849.3000	81.2159
849.2000	81.3612
849.1000	81.4972
849.0000	81.6269
848.9000	81.7512
848.8000	81.8653
848.7000	81.9768
848.6000	82.0953
848.5000	82.205
848.4000	82.3086
848.3000	82.4108
848.2000	82.5158
848.1000	82.6183
848.0000	82.7229
847.9000	82.8261
847.8000	82.925
847.7000	83.02
847.6000	83.0936
847.5000	83.1735
847.4000	83.2529
847.3000	83.3394
847.2000	83.4128
847.1000	83.4938
847.0000	83.5608
846.9000	83.6272
846.8000	83.6964
846.7000	83.7543
846.6000	83.8021
846.5000	83.8637
846.4000	83.9029
846.3000	83.9401
846.2000	83.9798
846.1000	83.9961
846.0000	84.0289
845.9000	84.0446
845.8000	84.065
845.7000	84.0775
845.6000	84.0835
845.5000	84.0918
845.4000	84.0953
845.3000	84.0883
845.2000	84.067
845.1000	84.0482
845.0000	84.0295
844.9000	83.9977
844.8000	83.9654
844.7000	83.937
844.6000	83.8896
844.5000	83.8519
844.4000	83.7981
844.3000	83.7534
844.2000	83.6972
844.1000	83.6385
844.0000	83.5738
843.9000	83.4985
843.8000	83.4191
843.7000	83.3504
843.6000	83.2775
843.5000	83.194
843.4000	83.1123
843.3000	83.0192
843.2000	82.9337
843.1000	82.8376
843.0000	82.7461
842.9000	82.6518
842.8000	82.5579
842.7000	82.4529
842.6000	82.3456
842.5000	82.2291
842.4000	82.123
842.3000	82.0127
842.2000	81.9
842.1000	81.7783
842.0000	81.6547
841.9000	81.5334
841.8000	81.4068
841.7000	81.2855
841.6000	81.1515
841.5000	81.0124
841.4000	80.8743
841.3000	80.7526
841.2000	80.6108
841.1000	80.4771
841.0000	80.3368
840.9000	80.2038
840.8000	80.0613
840.7000	79.9211
840.6000	79.783
840.5000	79.6408
840.4000	79.5039
840.3000	79.3594
840.2000	79.2278
840.1000	79.08
840.0000	78.9442
839.9000	78.8128
839.8000	78.6716
839.7000	78.5218
839.6000	78.388
839.5000	78.2451
839.4000	78.1107
839.3000	77.9685
839.2000	77.8345
839.1000	77.6914
839.0000	77.558
838.9000	77.4171
838.8000	77.2796
838.7000	77.1491
838.6000	77.0072
838.5000	76.8844
838.4000	76.7519
838.3000	76.6257
838.2000	76.5099
838.1000	76.3893
838.0000	76.2681
837.9000	76.1424
837.8000	76.024
837.7000	75.9169
837.6000	75.8025
837.5000	75.7044
837.4000	75.595
837.3000	75.5022
837.2000	75.4068
837.1000	75.3219
837.0000	75.2373
836.9000	75.1451
836.8000	75.069
836.7000	74.9854
836.6000	74.9041
836.5000	74.8265
836.4000	74.751
836.3000	74.6903
836.2000	74.6259
836.1000	74.5714
836.0000	74.5202
835.9000	74.4652
835.8000	74.4183
835.7000	74.3681
835.6000	74.3199
835.5000	74.2686
835.4000	74.2295
835.3000	74.2028
835.2000	74.1749
835.1000	74.1517
835.0000	74.1277
834.9000	74.1093
834.8000	74.1004
834.7000	74.0948
834.6000	74.0949
834.5000	74.0858
834.4000	74.0823
834.3000	74.0835
834.2000	74.089
834.1000	74.0997
834.0000	74.1301
833.9000	74.1547
833.8000	74.1721
833.7000	74.1962
833.6000	74.2248
833.5000	74.2589
833.4000	74.2985
833.3000	74.3398
833.2000	74.3881
833.1000	74.4355
833.0000	74.4804
832.9000	74.5347
832.8000	74.5938
832.7000	74.6658
832.6000	74.7347
832.5000	74.8082
832.4000	74.8654
832.3000	74.9374
832.2000	75.0256
832.1000	75.1115
832.0000	75.1894
831.9000	75.27
831.8000	75.3651
831.7000	75.4556
831.6000	75.5435
831.5000	75.6398
831.4000	75.7445
831.3000	75.8545
831.2000	75.9619
831.1000	76.0591
831.0000	76.1741
830.9000	76.2913
830.8000	76.4169
830.7000	76.538
830.6000	76.657
830.5000	76.7786
830.4000	76.908
830.3000	77.0399
830.2000	77.1714
830.1000	77.3142
830.0000	77.4522
829.9000	77.5923
829.8000	77.7318
829.7000	77.8706
829.6000	78.0149
829.5000	78.1646
829.4000	78.3137
829.3000	78.4592
829.2000	78.6057
829.1000	78.7676
829.0000	78.932
828.9000	79.0889
828.8000	79.2461
828.7000	79.4056
828.6000	79.5572
828.5000	79.7143
828.4000	79.8687
828.3000	80.0216
828.2000	80.1824
828.1000	80.3386
828.0000	80.5
827.9000	80.6602
827.8000	80.8113
827.7000	80.964
827.6000	81.1206
827.5000	81.2589
827.4000	81.3902
827.3000	81.5367
827.2000	81.6917
827.1000	81.8401
827.0000	81.9849
826.9000	82.1172
826.8000	82.261
826.7000	82.3997
826.6000	82.5344
826.5000	82.6665
826.4000	82.7994
826.3000	82.9271
826.2000	83.0454
826.1000	83.1677
826.0000	83.2905
825.9000	83.4039
825.8000	83.5286
825.7000	83.6319
825.6000	83.7271
825.5000	83.8235
825.4000	83.9327
825.3000	84.0388
825.2000	84.1309
825.1000	84.218
825.0000	84.3046
824.9000	84.3838
824.8000	84.4551
824.7000	84.5288
824.6000	84.6061
824.5000	84.6738
824.4000	84.7296
824.3000	84.8024
824.2000	84.8459
824.1000	84.8999
824.0000	84.9495
823.9000	84.9974
823.8000	85.028
823.7000	85.0565
823.6000	85.084
823.5000	85.1008
823.4000	85.1109
823.3000	85.1264
823.2000	85.133
823.1000	85.1265
823.0000	85.1209
822.9000	85.1149
822.8000	85.1029
822.7000	85.08
822.6000	85.0699
822.5000	85.0449
822.4000	85.0129
822.3000	84.9757
822.2000	84.9307
822.1000	84.8875
822.0000	84.8372
821.9000	84.7927
821.8000	84.7352
821.7000	84.6798
821.6000	84.6159
821.5000	84.5517
821.4000	84.4843
821.3000	84.4104
821.2000	84.326
821.1000	84.2454
821.0000	84.1552
820.9000	84.0629
820.8000	83.9662
820.7000	83.8775
820.6000	83.7769
820.5000	83.6702
820.4000	83.5574
820.3000	83.4454
820.2000	83.3371
820.1000	83.2166
820.0000	83.102
819.9000	82.9793
819.8000	82.8504
819.7000	82.7203
819.6000	82.5945
819.5000	82.4558
819.4000	82.3209
819.3000	82.1822
819.2000	82.0484
819.1000	81.8975
819.0000	81.7601
818.9000	81.6215
818.8000	81.4889
818.7000	81.3444
818.6000	81.193
818.5000	81.0489
818.4000	80.8976
818.3000	80.7521
818.2000	80.6076
818.1000	80.4592
818.0000	80.3129
817.9000	80.1693
817.8000	80.0252
817.7000	79.8839
817.6000	79.7321
817.5000	79.5894
817.4000	79.4454
817.3000	79.2979
817.2000	79.1546
817.1000	79.0209
817.0000	78.8921
816.9000	78.7547
816.8000	78.6215
816.7000	78.4956
816.6000	78.3572
816.5000	78.2331
816.4000	78.1054
816.3000	77.974
816.2000	77.8493
816.1000	77.7325
816.0000	77.6186
815.9000	77.5024
815.8000	77.3825
815.7000	77.2745
815.6000	77.1643
815.5000	77.0566
815.4000	76.9534
815.3000	76.8461
815.2000	76.7511
815.1000	76.6513
815.0000	76.564
814.9000	76.4782
814.8000	76.3952
814.7000	76.3219
814.6000	76.2427
814.5000	76.1639
814.4000	76.0986
814.3000	76.0336
814.2000	75.9695
814.1000	75.911
814.0000	75.8558
813.9000	75.7999
813.8000	75.7468
813.7000	75.7036
813.6000	75.6539
813.5000	75.6214
813.4000	75.59
813.3000	75.5553
813.2000	75.5256
813.1000	75.5009
813.0000	75.4862
812.9000	75.4729
812.8000	75.4561
812.7000	75.4457
812.6000	75.4535
812.5000	75.4541
812.4000	75.4558
812.3000	75.4658
812.2000	75.4824
812.1000	75.4999
812.0000	75.5249
811.9000	75.5482
811.8000	75.5731
811.7000	75.609
811.6000	75.6436
811.5000	75.6849
811.4000	75.7335
811.3000	75.782
811.2000	75.8333
811.1000	75.8913
811.0000	75.951
810.9000	76.0103
810.8000	76.0762
810.7000	76.1446
810.6000	76.2236
810.5000	76.2993
810.4000	76.3765
810.3000	76.4523
810.2000	76.5431
810.1000	76.6251
810.0000	76.7247
809.9000	76.8184
809.8000	76.9186
809.7000	77.023
809.6000	77.1336
809.5000	77.2446
809.4000	77.3628
809.3000	77.4803
809.2000	77.5975
809.1000	77.7241
809.0000	77.8422
808.9000	77.9708
808.8000	78.1039
808.7000	78.2421
808.6000	78.3743
808.5000	78.5106
808.4000	78.6511
808.3000	78.7914
808.2000	78.9203
808.1000	79.0572
808.0000	79.1975
807.9000	79.3349
807.8000	79.4693
807.7000	79.6148
807.6000	79.7592
807.5000	79.9032
807.4000	80.05
807.3000	80.1968
807.2000	80.3432
807.1000	80.481
807.0000	80.6282
806.9000	80.7797
806.8000	80.9175
806.7000	81.0563
806.6000	81.2076
806.5000	81.3503
806.4000	81.4854
806.3000	81.6354
806.2000	81.7729
806.1000	81.9093
806.0000	82.0466
805.9000	82.1788
805.8000	82.3026
805.7000	82.4351
805.6000	82.5591
805.5000	82.6946
805.4000	82.8253
805.3000	82.94
805.2000	83.0605
805.1000	83.1832
805.0000	83.3033
804.9000	83.411
804.8000	83.5293
804.7000	83.6275
804.6000	83.7268
804.5000	83.8227
804.4000	83.9228
804.3000	84.0133
804.2000	84.1038
804.1000	84.1855
804.0000	84.2649
803.9000	84.3355
803.8000	84.3957
803.7000	84.4666
803.6000	84.5264
803.5000	84.5801
803.4000	84.6255
803.3000	84.6723
803.2000	84.7091
803.1000	84.7467
803.0000	84.7722
802.9000	84.8011
802.8000	84.8226
802.7000	84.8332
802.6000	84.849
802.5000	84.8502
802.4000	84.8554
802.3000	84.8506
802.2000	84.8448
802.1000	84.8357
802.0000	84.8213
801.9000	84.7998
801.8000	84.7709
801.7000	84.7432
801.6000	84.7057
801.5000	84.6595
801.4000	84.618
801.3000	84.5679
801.2000	84.5115
801.1000	84.4562
801.0000	84.3884
800.9000	84.318
800.8000	84.2418
800.7000	84.164
800.6000	84.0738
800.5000	83.9755
800.4000	83.8738
800.3000	83.7685
800.2000	83.6588
800.1000	83.5435
800.0000	83.4208
799.9000	83.3067
799.8000	83.1831
799.7000	83.0526
799.6000	82.9229
799.5000	82.7858
799.4000	82.6433
799.3000	82.5082
799.2000	82.3627
799.1000	82.213
799.0000	82.0639
798.9000	81.9145
798.8000	81.7641
798.7000	81.6111
798.6000	81.4584
798.5000	81.2972
798.4000	81.1418
798.3000	80.9765
798.2000	80.8151
798.1000	80.6517
798.0000	80.4779
797.9000	80.3157
797.8000	80.1532
797.7000	79.9857
797.6000	79.8155
797.5000	79.6462
797.4000	79.4808
797.3000	79.315
797.2000	79.1542
797.1000	78.991
797.0000	78.8254
796.9000	78.6691
796.8000	78.507
796.7000	78.3492
796.6000	78.1839
796.5000	78.0213
796.4000	77.8689
796.3000	77.7083
796.2000	77.5533
796.1000	77.3951
796.0000	77.2477
795.9000	77.0963
795.8000	76.9489
795.7000	76.8018
795.6000	76.6512
795.5000	76.5099
795.4000	76.3693
795.3000	76.2257
795.2000	76.0909
795.1000	75.9559
795.0000	75.8366
794.9000	75.7138
794.8000	75.5964
794.7000	75.4864
794.6000	75.3716
794.5000	75.2686
794.4000	75.1596
794.3000	75.0564
794.2000	74.959
794.1000	74.8667
794.0000	74.7774
793.9000	74.6963
793.8000	74.6161
793.7000	74.5429
793.6000	74.4741
793.5000	74.4082
793.4000	74.3374
793.3000	74.2779
793.2000	74.2206
793.1000	74.1666
793.0000	74.1205
792.9000	74.075
792.8000	74.0403
792.7000	74.0141
792.6000	73.9844
792.5000	73.9568
792.4000	73.943
792.3000	73.9172
792.2000	73.9085
792.1000	73.9048
792.0000	73.9042
791.9000	73.9055
791.8000	73.9192
791.7000	73.9377
791.6000	73.948
791.5000	73.9682
791.4000	73.9915
791.3000	74.0213
791.2000	74.051
791.1000	74.0902
791.0000	74.1367
790.9000	74.1853
790.8000	74.2388
790.7000	74.3001
790.6000	74.3579
790.5000	74.426
790.4000	74.4961
790.3000	74.5709
790.2000	74.6413
790.1000	74.7186
790.0000	74.8108
789.9000	74.8987
789.8000	74.9949
789.7000	75.0904
789.6000	75.2024
789.5000	75.3105
789.4000	75.4156
789.3000	75.525
789.2000	75.6381
789.1000	75.7647
789.0000	75.8878
788.9000	76.008
788.8000	76.1321
788.7000	76.2632
788.6000	76.3998
788.5000	76.5356
788.4000	76.6699
788.3000	76.8123
788.2000	76.9536
788.1000	77.0972
788.0000	77.2378
787.9000	77.379
787.8000	77.5265
787.7000	77.6744
787.6000	77.8198
787.5000	77.9624
787.4000	78.1121
787.3000	78.2648
787.2000	78.4167
787.1000	78.5714
787.0000	78.7276
786.9000	78.8804
786.8000	79.0306
786.7000	79.1768
786.6000	79.3298
786.5000	79.4836
786.4000	79.6254
786.3000	79.771
786.2000	79.9249
786.1000	80.0773
786.0000	80.2228
785.9000	80.3711
785.8000	80.5133
785.7000	80.6557
785.6000	80.7937
785.5000	80.9222
785.4000	81.0503
785.3000	81.1781
785.2000	81.3087
785.1000	81.4366
785.0000	81.5537
784.9000	81.6664
784.8000	81.7842
784.7000	81.8948
784.6000	81.9952
784.5000	82.0909
784.4000	82.1925
784.3000	82.2836
784.2000	82.3712
784.1000	82.4492
784.0000	82.5279
783.9000	82.6086
783.8000	82.6762
783.7000	82.7414
783.6000	82.8013
783.5000	82.8556
783.4000	82.9125
783.3000	82.962
783.2000	82.9989
783.1000	83.0369
783.0000	83.0633
782.9000	83.089
782.8000	83.1056
782.7000	83.1158
782.6000	83.1257
782.5000	83.1303
782.4000	83.1307
782.3000	83.117
782.2000	83.1078
782.1000	83.0858
782.0000	83.0569
781.9000	83.0257
781.8000	82.9858
781.7000	82.9365
781.6000	82.8944
781.5000	82.8403
781.4000	82.7845
781.3000	82.7199
781.2000	82.65
781.1000	82.572
781.0000	82.4834
780.9000	82.3964
780.8000	82.3046
780.7000	82.2138
780.6000	82.1069
780.5000	82.0055
780.4000	81.893
780.3000	81.7785
780.2000	81.6557
780.1000	81.5344
780.0000	81.3967
779.9000	81.2632
779.8000	81.1246
779.7000	80.9843
779.6000	80.8329
779.5000	80.6882
779.4000	80.5429
779.3000	80.385
779.2000	80.2227
779.1000	80.0604
779.0000	79.9021
778.9000	79.7282
778.8000	79.5655
778.7000	79.3927
778.6000	79.2162
778.5000	79.0436
778.4000	78.8721
778.3000	78.6889
778.2000	78.5081
778.1000	78.3316
778.0000	78.1522
777.9000	77.9698
777.8000	77.7841
777.7000	77.6071
777.6000	77.4219
777.5000	77.2371
777.4000	77.0531
777.3000	76.8702
777.2000	76.68
777.1000	76.5006
777.0000	76.3184
776.9000	76.1372
776.8000	75.9589
776.7000	75.7861
776.6000	75.6138
776.5000	75.4383
776.4000	75.2687
776.3000	75.1001
776.2000	74.9343
776.1000	74.7685
776.0000	74.6035
775.9000	74.4438
775.8000	74.2851
775.7000	74.1382
775.6000	73.9949
775.5000	73.8447
775.4000	73.709
775.3000	73.5656
775.2000	73.4279
775.1000	73.2938
775.0000	73.1616
774.9000	73.0364
774.8000	72.9131
774.7000	72.7924
774.6000	72.6772
774.5000	72.5651
774.4000	72.4635
774.3000	72.3609
774.2000	72.2652
774.1000	72.1679
774.0000	72.0817
773.9000	72.0029
773.8000	71.9203
773.7000	71.8483
773.6000	71.7776
773.5000	71.7178
773.4000	71.6561
773.3000	71.5978
773.2000	71.5482
773.1000	71.5029
773.0000	71.4628
772.9000	71.4314
772.8000	71.4059
772.7000	71.3819
772.6000	71.3627
772.5000	71.3525
772.4000	71.3374
772.3000	71.3307
772.2000	71.3297
772.1000	71.3373
772.0000	71.3516
771.9000	71.3636
771.8000	71.3914
771.7000	71.4158
771.6000	71.4538
771.5000	71.494
771.4000	71.5355
771.3000	71.583
771.2000	71.6311
771.1000	71.6885
771.0000	71.7536
770.9000	71.8202
770.8000	71.8966
770.7000	71.9756
770.6000	72.0588
770.5000	72.1439
770.4000	72.235
770.3000	72.3307
770.2000	72.4294
770.1000	72.5335
770.0000	72.6365
769.9000	72.7487
769.8000	72.8686
769.7000	72.9887
769.6000	73.1163
769.5000	73.244
769.4000	73.373
769.3000	73.5081
769.2000	73.6439
769.1000	73.7804
769.0000	73.9289
768.9000	74.0803
768.8000	74.2288
768.7000	74.3798
768.6000	74.5344
768.5000	74.6984
768.4000	74.8609
768.3000	75.0234
768.2000	75.1857
768.1000	75.3504
768.0000	75.5147
767.9000	75.6834
767.8000	75.8526
767.7000	76.0188
767.6000	76.1883
767.5000	76.3623
767.4000	76.5289
767.3000	76.6981
767.2000	76.8704
767.1000	77.0403
767.0000	77.2095
766.9000	77.3807
766.8000	77.5408
766.7000	77.7045
766.6000	77.8704
766.5000	78.0309
766.4000	78.1968
766.3000	78.3567
766.2000	78.5102
766.1000	78.6654
766.0000	78.8196
765.9000	78.9685
765.8000	79.1182
765.7000	79.2603
765.6000	79.4005
765.5000	79.543
765.4000	79.6813
765.3000	79.8133
765.2000	79.9487
765.1000	80.0759
765.0000	80.192
764.9000	80.312
764.8000	80.4241
764.7000	80.5274
764.6000	80.6347
764.5000	80.7329
764.4000	80.8298
764.3000	80.9216
764.2000	81.0008
764.1000	81.0745
764.0000	81.1452
763.9000	81.2036
763.8000	81.2658
763.7000	81.3123
763.6000	81.3529
763.5000	81.3931
763.4000	81.4308
763.3000	81.4571
763.2000	81.4745
763.1000	81.496
763.0000	81.5025
762.9000	81.5074
762.8000	81.5033
762.7000	81.4901
762.6000	81.477
762.5000	81.4581
762.4000	81.4309
762.3000	81.398
762.2000	81.3567
762.1000	81.3104
762.0000	81.2632
761.9000	81.2042
761.8000	81.1427
761.7000	81.0675
761.6000	80.9955
761.5000	80.9119
761.4000	80.8197
761.3000	80.7345
761.2000	80.6334
761.1000	80.5316
761.0000	80.4246
760.9000	80.3097
760.8000	80.1934
760.7000	80.0702
760.6000	79.9404
760.5000	79.8048
760.4000	79.6642
760.3000	79.5268
760.2000	79.3785
760.1000	79.2343
760.0000	79.0825
759.9000	78.9237
759.8000	78.7711
759.7000	78.6003
759.6000	78.4328
759.5000	78.26
759.4000	78.0855
759.3000	77.9164
759.2000	77.7365
759.1000	77.5621
759.0000	77.384
758.9000	77.2092
758.8000	77.0344
758.7000	76.848
758.6000	76.6636
758.5000	76.4777
758.4000	76.2889
758.3000	76.1047
758.2000	75.9152
758.1000	75.7353
758.0000	75.5552
757.9000	75.3804
757.8000	75.2019
757.7000	75.0183
757.6000	74.849
757.5000	74.6741
757.4000	74.4925
757.3000	74.3186
757.2000	74.1466
757.1000	73.9773
757.0000	73.8131
756.9000	73.6516
756.8000	73.493
756.7000	73.3403
756.6000	73.1917
756.5000	73.0381
756.4000	72.8909
756.3000	72.744
756.2000	72.602
756.1000	72.4671
756.0000	72.3299
755.9000	72.1981
755.8000	72.0776
755.7000	71.9585
755.6000	71.8423
755.5000	71.7325
755.4000	71.6264
755.3000	71.5287
755.2000	71.4327
755.1000	71.3402
755.0000	71.2539
754.9000	71.1776
754.8000	71.1032
754.7000	71.0303
754.6000	70.9645
754.5000	70.9041
754.4000	70.8444
754.3000	70.7969
754.2000	70.7538
754.1000	70.7181
754.0000	70.6861
753.9000	70.6591
753.8000	70.6426
753.7000	70.627
753.6000	70.616
753.5000	70.6128
753.4000	70.6174
753.3000	70.6215
753.2000	70.6373
753.1000	70.6605
753.0000	70.6872
752.9000	70.7204
752.8000	70.7622
752.7000	70.8058
752.6000	70.8555
752.5000	70.9057
752.4000	70.9644
752.3000	71.0324
752.2000	71.0982
752.1000	71.1743
752.0000	71.2586
751.9000	71.345
751.8000	71.4355
751.7000	71.5318
751.6000	71.6273
751.5000	71.735
751.4000	71.8476
751.3000	71.9644
751.2000	72.0863
751.1000	72.2141
751.0000	72.3439
750.9000	72.4841
750.8000	72.6232
750.7000	72.7651
750.6000	72.916
750.5000	73.0638
750.4000	73.2158
750.3000	73.3693
750.2000	73.5271
750.1000	73.6896
750.0000	73.8562
749.9000	74.0238
749.8000	74.1921
749.7000	74.3605
749.6000	74.5348
749.5000	74.7095
749.4000	74.8911
749.3000	75.0683
749.2000	75.2551
749.1000	75.4382
749.0000	75.622
748.9000	75.8075
748.8000	75.9962
748.7000	76.1842
748.6000	76.3687
748.5000	76.5544
748.4000	76.7465
748.3000	76.9325
748.2000	77.1228
748.1000	77.3138
748.0000	77.5019
747.9000	77.6872
747.8000	77.8688
747.7000	78.0485
747.6000	78.2233
747.5000	78.3956
747.4000	78.5649
747.3000	78.7383
747.2000	78.8983
747.1000	79.0644
747.0000	79.2324
746.9000	79.3914
746.8000	79.54
746.7000	79.6861
746.6000	79.8306
746.5000	79.9661
746.4000	80.0948
746.3000	80.2289
746.2000	80.3511
746.1000	80.4741
746.0000	80.5837
745.9000	80.6968
745.8000	80.799
745.7000	80.8919
745.6000	80.9949
745.5000	81.0795
745.4000	81.1519
745.3000	81.225
745.2000	81.2946
745.1000	81.3579
745.0000	81.4111
744.9000	81.4596
744.8000	81.5031
744.7000	81.533
744.6000	81.5604
744.5000	81.5785
744.4000	81.5951
744.3000	81.6035
744.2000	81.608
744.1000	81.6057
744.0000	81.5857
743.9000	81.5647
743.8000	81.5383
743.7000	81.5049
743.6000	81.4594
743.5000	81.4096
743.4000	81.3584
743.3000	81.3054
743.2000	81.2359
743.1000	81.1606
743.0000	81.0815
742.9000	80.993
742.8000	80.9066
742.7000	80.8079
742.6000	80.7081
742.5000	80.5995
742.4000	80.4894
742.3000	80.3717
742.2000	80.2513
742.1000	80.1277
742.0000	80.002
741.9000	79.8731
741.8000	79.7329
741.7000	79.587
741.6000	79.4451
741.5000	79.299
741.4000	79.1467
741.3000	78.9974
741.2000	78.8379
741.1000	78.6796
741.0000	78.5179
740.9000	78.3544
740.8000	78.1884
740.7000	78.0257
740.6000	77.8616
740.5000	77.6938
740.4000	77.5254
740.3000	77.3552
740.2000	77.1893
740.1000	77.017
740.0000	76.8376
739.9000	76.6739
739.8000	76.5052
739.7000	76.3413
739.6000	76.1738
739.5000	76.0106
739.4000	75.8492
739.3000	75.6881
739.2000	75.5254
739.1000	75.3624
739.0000	75.2089
738.9000	75.0558
738.8000	74.9019
738.7000	74.7567
738.6000	74.617
738.5000	74.48
738.4000	74.3418
738.3000	74.2027
738.2000	74.0745
738.1000	73.9448
738.0000	73.8251
737.9000	73.7094
737.8000	73.5947
737.7000	73.4889
737.6000	73.3864
737.5000	73.2942
737.4000	73.1999
737.3000	73.1103
737.2000	73.0279
737.1000	72.9469
737.0000	72.8702
736.9000	72.7924
736.8000	72.7282
736.7000	72.6694
736.6000	72.6181
736.5000	72.5732
736.4000	72.5355
736.3000	72.4977
736.2000	72.4691
736.1000	72.446
736.0000	72.4286
735.9000	72.4141
735.8000	72.4114
735.7000	72.4138
735.6000	72.4227
735.5000	72.4346
735.4000	72.4542
735.3000	72.4858
735.2000	72.5182
735.1000	72.5587
735.0000	72.6049
734.9000	72.6558
734.8000	72.7099
734.7000	72.7673
734.6000	72.8373
734.5000	72.9096
734.4000	72.9876
734.3000	73.0736
734.2000	73.1627
734.1000	73.2602
734.0000	73.3648
733.9000	73.4749
733.8000	73.588
733.7000	73.7014
733.6000	73.8293
733.5000	73.954
733.4000	74.0833
733.3000	74.2205
733.2000	74.3569
733.1000	74.5054
733.0000	74.6513
732.9000	74.8001
732.8000	74.955
732.7000	75.1157
732.6000	75.2793
732.5000	75.4406
732.4000	75.606
732.3000	75.7771
732.2000	75.9467
732.1000	76.122
732.0000	76.2913
731.9000	76.4688
731.8000	76.6502
731.7000	76.8287
731.6000	77.0098
731.5000	77.1919
731.4000	77.3753
731.3000	77.5602
731.2000	77.7459
731.1000	77.928
731.0000	78.1121
730.9000	78.2977
730.8000	78.4808
730.7000	78.6598
730.6000	78.845
730.5000	79.0303
730.4000	79.2089
730.3000	79.3845
730.2000	79.5544
730.1000	79.7274
730.0000	79.9008
729.9000	80.0657
729.8000	80.2313
729.7000	80.3967
729.6000	80.5539
729.5000	80.7077
729.4000	80.8581
729.3000	81.0041
729.2000	81.1463
729.1000	81.2877
729.0000	81.421
728.9000	81.5425
728.8000	81.6681
728.7000	81.7903
728.6000	81.9063
728.5000	82.0153
728.4000	82.1185
728.3000	82.2154
728.2000	82.3063
728.1000	82.3877
728.0000	82.4623
727.9000	82.5351
727.8000	82.599
727.7000	82.6587
727.6000	82.7079
727.5000	82.7538
727.4000	82.7888
727.3000	82.8241
727.2000	82.8481
727.1000	82.8707
727.0000	82.8797
726.9000	82.8821
726.8000	82.8785
726.7000	82.8735
726.6000	82.8574
726.5000	82.8366
726.4000	82.8096
726.3000	82.772
726.2000	82.7323
726.1000	82.6776
726.0000	82.6252
725.9000	82.5599
725.8000	82.4932
725.7000	82.4178
725.6000	82.3411
725.5000	82.2495
725.4000	82.1637
725.3000	82.0663
725.2000	81.9664
725.1000	81.8614
725.0000	81.7481
724.9000	81.6307
724.8000	81.5125
724.7000	81.3911
724.6000	81.2575
724.5000	81.1256
724.4000	80.986
724.3000	80.8473
724.2000	80.7049
724.1000	80.5625
724.0000	80.4082
723.9000	80.2597
723.8000	80.1055
723.7000	79.9502
723.6000	79.7968
723.5000	79.6363
723.4000	79.4784
723.3000	79.3212
723.2000	79.1606
723.1000	78.9971
723.0000	78.8349
722.9000	78.6796
722.8000	78.5216
722.7000	78.3626
722.6000	78.204
722.5000	78.0414
722.4000	77.8914
722.3000	77.7437
722.2000	77.5919
722.1000	77.4398
722.0000	77.2897
721.9000	77.1438
721.8000	77.0032
721.7000	76.8618
721.6000	76.7253
721.5000	76.5932
721.4000	76.4684
721.3000	76.3444
721.2000	76.2226
721.1000	76.1066
721.0000	75.9916
720.9000	75.8821
720.8000	75.7764
720.7000	75.6733
720.6000	75.5774
720.5000	75.4951
720.4000	75.4052
720.3000	75.3238
720.2000	75.249
720.1000	75.176
720.0000	75.1113
719.9000	75.05
719.8000	74.995
719.7000	74.9471
719.6000	74.9064
719.5000	74.8712
719.4000	74.8437
719.3000	74.8256
719.2000	74.8066
719.1000	74.7954
719.0000	74.7916
718.9000	74.7906
718.8000	74.8054
718.7000	74.821
718.6000	74.838
718.5000	74.8664
718.4000	74.8994
718.3000	74.9407
718.2000	74.9827
718.1000	75.0284
718.0000	75.083
717.9000	75.1392
717.8000	75.2061
717.7000	75.2719
717.6000	75.348
717.5000	75.4258
717.4000	75.5124
717.3000	75.5993
717.2000	75.691
717.1000	75.7925
717.0000	75.9018
716.9000	76.0143
716.8000	76.1272
716.7000	76.2459
716.6000	76.3738
716.5000	76.506
716.4000	76.6396
716.3000	76.7785
716.2000	76.9191
716.1000	77.0698
716.0000	77.2198
715.9000	77.3689
715.8000	77.5235
715.7000	77.685
715.6000	77.8465
715.5000	78.0072
715.4000	78.1672
715.3000	78.3375
715.2000	78.507
715.1000	78.6768
715.0000	78.8457
714.9000	79.0155
714.8000	79.1924
714.7000	79.3645
714.6000	79.5335
714.5000	79.6994
714.4000	79.8752
714.3000	80.0465
714.2000	80.215
714.1000	80.383
714.0000	80.5474
713.9000	80.7173
713.8000	80.8798
713.7000	81.0344
713.6000	81.1893
713.5000	81.3413
713.4000	81.4892
713.3000	81.6338
713.2000	81.7734
713.1000	81.9149
713.0000	82.0502
712.9000	82.1836
712.8000	82.3023
712.7000	82.4207
712.6000	82.535
712.5000	82.6405
712.4000	82.7425
712.3000	82.8336
712.2000	82.9268
712.1000	83.0109
712.0000	83.0883
711.9000	83.1547
711.8000	83.2245
711.7000	83.2855
711.6000	83.3388
711.5000	83.3761
711.4000	83.4127
711.3000	83.4396
711.2000	83.4645
711.1000	83.4841
711.0000	83.4882
710.9000	83.4876
710.8000	83.4828
710.7000	83.4722
710.6000	83.4511
710.5000	83.4234
710.4000	83.3926
710.3000	83.3563
710.2000	83.3066
710.1000	83.25
710.0000	83.1834
709.9000	83.124
709.8000	83.0533
709.7000	82.9751
709.6000	82.8882
709.5000	82.7974
709.4000	82.7026
709.3000	82.6005
709.2000	82.4895
709.1000	82.3715
709.0000	82.2511
708.9000	82.1241
708.8000	81.9933
708.7000	81.8605
708.6000	81.7202
708.5000	81.5814
708.4000	81.4346
708.3000	81.2795
708.2000	81.1259
708.1000	80.9697
708.0000	80.8097
707.9000	80.6457
707.8000	80.4837
707.7000	80.3241
707.6000	80.1581
707.5000	79.996
707.4000	79.8268
707.3000	79.6655
707.2000	79.4961
707.1000	79.3273
707.0000	79.1607
706.9000	78.9876
706.8000	78.8232
706.7000	78.6594
706.6000	78.4937
706.5000	78.3316
706.4000	78.1711
706.3000	78.0151
706.2000	77.8613
706.1000	77.7062
706.0000	77.5546
705.9000	77.4022
705.8000	77.2591
705.7000	77.1093
705.6000	76.9725
705.5000	76.8385
705.4000	76.709
705.3000	76.5813
705.2000	76.4556
705.1000	76.3361
705.0000	76.2189
704.9000	76.1079
704.8000	76.0027
704.7000	75.8981
704.6000	75.8008
704.5000	75.7081
704.4000	75.6297
704.3000	75.5514
704.2000	75.4802
704.1000	75.4163
704.0000	75.3527
703.9000	75.2978
703.8000	75.2464
703.7000	75.2077
703.6000	75.176
703.5000	75.1461
703.4000	75.1247
703.3000	75.1126
703.2000	75.1052
703.1000	75.1084
703.0000	75.117
702.9000	75.1314
702.8000	75.15
702.7000	75.1794
702.6000	75.2149
702.5000	75.2549
702.4000	75.3005
702.3000	75.3547
702.2000	75.4158
702.1000	75.4807
702.0000	75.5543
701.9000	75.6338
701.8000	75.7198
701.7000	75.8058
701.6000	75.8997
701.5000	76.0017
701.4000	76.1043
701.3000	76.2115
701.2000	76.3252
701.1000	76.447
701.0000	76.5696
700.9000	76.6959
700.8000	76.832
700.7000	76.966
700.6000	77.1053
700.5000	77.2462
700.4000	77.3887
700.3000	77.5368
700.2000	77.6929
700.1000	77.8457
700.0000	78.0001
699.9000	78.1544
699.8000	78.3093
699.7000	78.4671
699.6000	78.621
699.5000	78.7746
699.4000	78.9314
699.3000	79.091
699.2000	79.2476
699.1000	79.4057
699.0000	79.5604
698.9000	79.7182
698.8000	79.8713
698.7000	80.023
698.6000	80.1641
698.5000	80.3123
698.4000	80.4583
698.3000	80.5975
698.2000	80.7355
698.1000	80.8686
698.0000	81.0004
697.9000	81.1276
697.8000	81.2455
697.7000	81.3646
697.6000	81.4746
697.5000	81.5781
697.4000	81.6785
697.3000	81.7717
697.2000	81.8573
697.1000	81.9399
697.0000	82.0188
696.9000	82.0836
696.8000	82.1395
696.7000	82.194
696.6000	82.2425
696.5000	82.2835
696.4000	82.3156
696.3000	82.3445
696.2000	82.3688
696.1000	82.379
696.0000	82.3805
695.9000	82.3754
695.8000	82.368
695.7000	82.354
695.6000	82.3313
695.5000	82.2994
695.4000	82.2613
695.3000	82.2186
695.2000	82.1676
695.1000	82.108
695.0000	82.0402
694.9000	81.9644
694.8000	81.8866
694.7000	81.7956
694.6000	81.7015
694.5000	81.5994
694.4000	81.4945
694.3000	81.3874
694.2000	81.2694
694.1000	81.1388
694.0000	81.0059
693.9000	80.8689
693.8000	80.7263
693.7000	80.5802
693.6000	80.4283
693.5000	80.2732
693.4000	80.1124
693.3000	79.9499
693.2000	79.7831
693.1000	79.6109
693.0000	79.432
692.9000	79.2512
692.8000	79.0679
692.7000	78.8863
692.6000	78.6952
692.5000	78.5096
692.4000	78.3205
692.3000	78.1275
692.2000	77.9328
692.1000	77.7396
692.0000	77.5445
691.9000	77.3457
691.8000	77.1488
691.7000	76.9552
691.6000	76.7557
691.5000	76.5559
691.4000	76.3605
691.3000	76.1676
691.2000	75.9777
691.1000	75.7802
691.0000	75.5891
690.9000	75.401
690.8000	75.217
690.7000	75.0364
690.6000	74.8574
690.5000	74.6765
690.4000	74.5061
690.3000	74.3385
690.2000	74.1755
690.1000	74.0119
690.0000	73.8612
689.9000	73.7168
689.8000	73.5702
689.7000	73.4334
689.6000	73.2974
689.5000	73.1712
689.4000	73.0515
689.3000	72.9315
689.2000	72.8167
689.1000	72.7108
689.0000	72.6126
688.9000	72.5236
688.8000	72.4355
688.7000	72.357
688.6000	72.2841
688.5000	72.2225
688.4000	72.1614
688.3000	72.1054
688.2000	72.0665
688.1000	72.0285
688.0000	71.9997
687.9000	71.9749
687.8000	71.9624
687.7000	71.9571
687.6000	71.9582
687.5000	71.9633
687.4000	71.9762
687.3000	71.9981
687.2000	72.0294
687.1000	72.0665
687.0000	72.1077
686.9000	72.1583
686.8000	72.2144
686.7000	72.2832
686.6000	72.3478
686.5000	72.4238
686.4000	72.5091
686.3000	72.5998
686.2000	72.6916
686.1000	72.7889
686.0000	72.9001
685.9000	73.0144
685.8000	73.1317
685.7000	73.2562
685.6000	73.3852
685.5000	73.5197
685.4000	73.6626
685.3000	73.8033
685.2000	73.9496
685.1000	74.0983
685.0000	74.252
684.9000	74.408
684.8000	74.5649
684.7000	74.7242
684.6000	74.8867
684.5000	75.0536
684.4000	75.2164
684.3000	75.3863
684.2000	75.5585
684.1000	75.7277
684.0000	75.8963
683.9000	76.0684
683.8000	76.2356
683.7000	76.4061
683.6000	76.5749
683.5000	76.7407
683.4000	76.9069
683.3000	77.0737
683.2000	77.2375
683.1000	77.3995
683.0000	77.5577
682.9000	77.717
682.8000	77.8707
682.7000	78.0191
682.6000	78.1608
682.5000	78.3006
682.4000	78.4354
682.3000	78.5633
682.2000	78.687
682.1000	78.8053
682.0000	78.9219
681.9000	79.0295
681.8000	79.1323
681.7000	79.2242
681.6000	79.3093
681.5000	79.3888
681.4000	79.4607
681.3000	79.5248
681.2000	79.5813
681.1000	79.6315
681.0000	79.674
680.9000	79.7026
680.8000	79.7288
680.7000	79.7427
680.6000	79.7518
680.5000	79.7512
680.4000	79.7358
680.3000	79.7123
680.2000	79.6817
680.1000	79.6439
680.0000	79.5954
679.9000	79.5386
679.8000	79.4722
679.7000	79.3987
679.6000	79.3117
679.5000	79.2181
679.4000	79.1193
679.3000	79.0154
679.2000	78.8997
679.1000	78.7726
679.0000	78.6432
678.9000	78.5041
678.8000	78.3647
678.7000	78.2201
678.6000	78.0643
678.5000	77.905
678.4000	77.7424
678.3000	77.5707
678.2000	77.4011
678.1000	77.2221
678.0000	77.0434
677.9000	76.8523
677.8000	76.6628
677.7000	76.4702
677.6000	76.2751
677.5000	76.088
677.4000	75.8871
677.3000	75.6902
677.2000	75.4901
677.1000	75.289
677.0000	75.0916
676.9000	74.8899
676.8000	74.6887
676.7000	74.4932
676.6000	74.2919
676.5000	74.0952
676.4000	73.9003
676.3000	73.7147
676.2000	73.5293
676.1000	73.3434
676.0000	73.1646
675.9000	72.9831
675.8000	72.8086
675.7000	72.639
675.6000	72.4747
675.5000	72.3116
675.4000	72.1552
675.3000	72.0069
675.2000	71.8622
675.1000	71.7215
675.0000	71.5891
674.9000	71.4639
674.8000	71.3471
674.7000	71.2329
674.6000	71.1227
674.5000	71.0205
674.4000	70.9241
674.3000	70.8342
674.2000	70.7564
674.1000	70.6818
674.0000	70.6116
673.9000	70.5543
673.8000	70.5042
673.7000	70.4618
673.6000	70.4283
673.5000	70.4003
673.4000	70.3807
673.3000	70.3697
673.2000	70.3664
673.1000	70.3699
673.0000	70.3816
672.9000	70.4054
672.8000	70.4325
672.7000	70.4704
672.6000	70.5141
672.5000	70.5658
672.4000	70.6262
672.3000	70.6957
672.2000	70.7752
672.1000	70.856
672.0000	70.9422
671.9000	71.0378
671.8000	71.1452
671.7000	71.2554
671.6000	71.3685
671.5000	71.4892
671.4000	71.6211
671.3000	71.757
671.2000	71.901
671.1000	72.0475
671.0000	72.1996
670.9000	72.3587
670.8000	72.521
670.7000	72.6834
670.6000	72.8468
670.5000	73.0175
670.4000	73.1955
670.3000	73.3743
670.2000	73.5548
670.1000	73.7321
670.0000	73.9187
669.9000	74.1041
669.8000	74.2865
669.7000	74.4671
669.6000	74.6501
669.5000	74.8351
669.4000	75.0165
669.3000	75.1986
669.2000	75.3793
669.1000	75.5622
669.0000	75.7392
668.9000	75.9141
668.8000	76.0884
668.7000	76.2638
668.6000	76.4284
668.5000	76.5956
668.4000	76.7494
668.3000	76.9078
668.2000	77.0592
668.1000	77.2067
668.0000	77.3478
667.9000	77.4874
667.8000	77.6209
667.7000	77.7422
667.6000	77.8632
667.5000	77.9751
667.4000	78.0804
667.3000	78.1821
667.2000	78.2723
667.1000	78.3516
667.0000	78.4289
666.9000	78.4963
666.8000	78.5586
666.7000	78.6118
666.6000	78.6559
666.5000	78.6951
666.4000	78.7227
666.3000	78.7377
666.2000	78.7463
666.1000	78.7482
666.0000	78.7401
665.9000	78.7207
665.8000	78.701
665.7000	78.6632
665.6000	78.622
665.5000	78.5735
665.4000	78.5114
665.3000	78.4438
665.2000	78.3705
665.1000	78.2885
665.0000	78.1972
664.9000	78.0956
664.8000	77.9911
664.7000	77.8788
664.6000	77.7617
664.5000	77.6371
664.4000	77.5033
664.3000	77.3673
664.2000	77.2218
664.1000	77.0741
664.0000	76.9201
663.9000	76.7633
663.8000	76.6052
663.7000	76.4408
663.6000	76.2716
663.5000	76.0914
663.4000	75.9135
663.3000	75.7405
663.2000	75.5623
663.1000	75.3799
663.0000	75.1956
662.9000	75.0114
662.8000	74.8266
662.7000	74.6395
662.6000	74.4568
662.5000	74.276
662.4000	74.0909
662.3000	73.9077
662.2000	73.7237
662.1000	73.543
662.0000	73.3663
661.9000	73.1943
661.8000	73.0229
661.7000	72.8494
661.6000	72.6836
661.5000	72.5256
661.4000	72.3691
661.3000	72.2159
661.2000	72.0721
661.1000	71.9347
661.0000	71.798
660.9000	71.6668
660.8000	71.5459
660.7000	71.4318
660.6000	71.3241
660.5000	71.2217
660.4000	71.1291
660.3000	71.0435
660.2000	70.9677
660.1000	70.8986
660.0000	70.8331
659.9000	70.7771
659.8000	70.729
659.7000	70.6924
659.6000	70.6591
659.5000	70.632
659.4000	70.6133
659.3000	70.6057
659.2000	70.6064
659.1000	70.6137
659.0000	70.6276
658.9000	70.6548
658.8000	70.6841
658.7000	70.7241
658.6000	70.7718
658.5000	70.8302
658.4000	70.8981
658.3000	70.9712
658.2000	71.0513
658.1000	71.1401
658.0000	71.24
657.9000	71.3499
657.8000	71.4598
657.7000	71.577
657.6000	71.6981
657.5000	71.8321
657.4000	71.9721
657.3000	72.1123
657.2000	72.2611
657.1000	72.4169
657.0000	72.5735
656.9000	72.7353
656.8000	72.9019
656.7000	73.0745
656.6000	73.2525
656.5000	73.4308
656.4000	73.6129
656.3000	73.7967
656.2000	73.9875
656.1000	74.1814
656.0000	74.3771
655.9000	74.5701
655.8000	74.7657
655.7000	74.964
655.6000	75.1623
655.5000	75.3609
655.4000	75.5581
655.3000	75.7543
655.2000	75.9443
655.1000	76.1328
655.0000	76.3254
654.9000	76.5148
654.8000	76.6955
654.7000	76.8741
654.6000	77.0502
654.5000	77.2209
654.4000	77.3855
654.3000	77.5431
654.2000	77.6994
654.1000	77.8469
654.0000	77.9909
653.9000	78.1225
653.8000	78.2519
653.7000	78.3759
653.6000	78.4955
653.5000	78.6049
653.4000	78.7002
653.3000	78.7894
653.2000	78.876
653.1000	78.9526
653.0000	79.0234
652.9000	79.0801
652.8000	79.13
652.7000	79.175
652.6000	79.2079
652.5000	79.235
652.4000	79.2486
652.3000	79.2592
652.2000	79.26
652.1000	79.2468
652.0000	79.2249
651.9000	79.1971
651.8000	79.1603
651.7000	79.1168
651.6000	79.0613
651.5000	78.9961
651.4000	78.9269
651.3000	78.8505
651.2000	78.7727
651.1000	78.6803
651.0000	78.5832
650.9000	78.4753
650.8000	78.3655
650.7000	78.2471
650.6000	78.1216
650.5000	77.9943
650.4000	77.8646
650.3000	77.7288
650.2000	77.587
650.1000	77.4394
650.0000	77.2942
649.9000	77.1464
649.8000	76.9873
649.7000	76.8312
649.6000	76.6707
649.5000	76.5079
649.4000	76.342
649.3000	76.1796
649.2000	76.0141
649.1000	75.8533
649.0000	75.6902
648.9000	75.5256
648.8000	75.3641
648.7000	75.2028
648.6000	75.048
648.5000	74.8951
648.4000	74.74
648.3000	74.5903
648.2000	74.4463
648.1000	74.3036
648.0000	74.1619
647.9000	74.0295
647.8000	73.9027
647.7000	73.7791
647.6000	73.6631
647.5000	73.5477
647.4000	73.444
647.3000	73.3465
647.2000	73.254
647.1000	73.1665
647.0000	73.0875
646.9000	73.0147
646.8000	72.9492
646.7000	72.8895
646.6000	72.8375
646.5000	72.7954
646.4000	72.7634
646.3000	72.7362
646.2000	72.7211
646.1000	72.7118
646.0000	72.7101
645.9000	72.7199
645.8000	72.7343
645.7000	72.7555
645.6000	72.7857
645.5000	72.8261
645.4000	72.8705
645.3000	72.9259
645.2000	72.9883
645.1000	73.0594
645.0000	73.1379
644.9000	73.2219
644.8000	73.3109
644.7000	73.4111
644.6000	73.5129
644.5000	73.6225
644.4000	73.7434
644.3000	73.8663
644.2000	73.9943
644.1000	74.134
644.0000	74.2744
643.9000	74.4196
643.8000	74.5706
643.7000	74.7235
643.6000	74.8848
643.5000	75.0517
643.4000	75.2179
643.3000	75.3871
643.2000	75.5621
643.1000	75.7376
643.0000	75.9156
642.9000	76.0996
642.8000	76.2759
642.7000	76.4562
642.6000	76.6401
642.5000	76.8192
642.4000	77
642.3000	77.1804
642.2000	77.3579
642.1000	77.5363
642.0000	77.7121
641.9000	77.878
641.8000	78.0474
641.7000	78.2088
641.6000	78.3683
641.5000	78.5235
641.4000	78.674
641.3000	78.815
641.2000	78.9543
641.1000	79.0866
641.0000	79.2147
640.9000	79.3332
640.8000	79.4426
640.7000	79.5485
640.6000	79.6473
640.5000	79.7336
640.4000	79.81
640.3000	79.8846
640.2000	79.952
640.1000	80.0126
640.0000	80.0628
639.9000	80.1019
639.8000	80.1363
639.7000	80.1637
639.6000	80.1794
639.5000	80.1853
639.4000	80.1801
639.3000	80.1692
639.2000	80.1553
639.1000	80.1284
639.0000	80.093
638.9000	80.0524
638.8000	80.0051
638.7000	79.9464
638.6000	79.879
638.5000	79.8031
638.4000	79.7194
638.3000	79.6357
638.2000	79.5391
638.1000	79.4357
638.0000	79.3315
637.9000	79.2224
637.8000	79.1045
637.7000	78.9807
637.6000	78.8524
637.5000	78.7185
637.4000	78.5798
637.3000	78.4352
637.2000	78.2894
637.1000	78.1451
637.0000	77.994
636.9000	77.8476
636.8000	77.695
636.7000	77.5365
636.6000	77.3822
636.5000	77.2233
636.4000	77.0641
636.3000	76.9069
636.2000	76.7522
636.1000	76.6001
636.0000	76.4445
635.9000	76.2951
635.8000	76.1489
635.7000	76.0098
635.6000	75.8691
635.5000	75.7311
635.4000	75.5939
635.3000	75.4623
635.2000	75.3395
635.1000	75.2216
635.0000	75.1052
634.9000	74.9986
634.8000	74.896
634.7000	74.7987
634.6000	74.7089
634.5000	74.6256
634.4000	74.5502
634.3000	74.4801
634.2000	74.4157
634.1000	74.354
634.0000	74.3057
633.9000	74.2635
633.8000	74.2339
633.7000	74.2052
633.6000	74.1847
633.5000	74.1754
633.4000	74.1761
633.3000	74.1805
633.2000	74.1955
633.1000	74.2158
633.0000	74.2444
632.9000	74.2785
632.8000	74.3192
632.7000	74.3686
632.6000	74.4281
632.5000	74.4997
632.4000	74.5687
632.3000	74.649
632.2000	74.7342
632.1000	74.8282
632.0000	74.9279
631.9000	75.0327
631.8000	75.1391
631.7000	75.2566
631.6000	75.3767
631.5000	75.5035
631.4000	75.6306
631.3000	75.7653
631.2000	75.9035
631.1000	76.0457
631.0000	76.1903
630.9000	76.3352
630.8000	76.4846
630.7000	76.6328
630.6000	76.7865
630.5000	76.939
630.4000	77.0929
630.3000	77.2403
630.2000	77.3929
630.1000	77.5436
630.0000	77.6916
629.9000	77.8395
629.8000	77.9854
629.7000	78.1284
629.6000	78.2703
629.5000	78.4086
629.4000	78.5409
629.3000	78.6675
629.2000	78.7935
629.1000	78.9102
629.0000	79.023
628.9000	79.1319
628.8000	79.2319
628.7000	79.3312
628.6000	79.4197
628.5000	79.5
628.4000	79.5748
628.3000	79.6431
628.2000	79.7057
628.1000	79.7607
628.0000	79.8033
627.9000	79.8373
627.8000	79.8641
627.7000	79.8869
627.6000	79.8947
627.5000	79.8989
627.4000	79.8906
627.3000	79.8726
627.2000	79.8495
627.1000	79.814
627.0000	79.7751
626.9000	79.7266
626.8000	79.6699
626.7000	79.6026
626.6000	79.5218
626.5000	79.435
626.4000	79.3501
626.3000	79.2546
626.2000	79.1514
626.1000	79.0395
626.0000	78.9274
625.9000	78.8068
625.8000	78.6783
625.7000	78.5459
625.6000	78.4055
625.5000	78.2633
625.4000	78.111
625.3000	77.959
625.2000	77.8023
625.1000	77.6442
625.0000	77.4851
624.9000	77.3206
624.8000	77.147
624.7000	76.9777
624.6000	76.8056
624.5000	76.6324
624.4000	76.4535
624.3000	76.2771
624.2000	76.1055
624.1000	75.9332
624.0000	75.7635
623.9000	75.5957
623.8000	75.4338
623.7000	75.2677
623.6000	75.1048
623.5000	74.9439
623.4000	74.7904
623.3000	74.6444
623.2000	74.5064
623.1000	74.366
623.0000	74.2319
622.9000	74.1018
622.8000	73.984
622.7000	73.8722
622.6000	73.7648
622.5000	73.6626
622.4000	73.568
622.3000	73.482
622.2000	73.4016
622.1000	73.3295
622.0000	73.2714
621.9000	73.2185
621.8000	73.1763
621.7000	73.1394
621.6000	73.1084
621.5000	73.0915
621.4000	73.0812
621.3000	73.083
621.2000	73.0874
621.1000	73.0985
621.0000	73.121
620.9000	73.1533
620.8000	73.1901
620.7000	73.2358
620.6000	73.291
620.5000	73.3554
620.4000	73.4221
620.3000	73.4967
620.2000	73.5782
620.1000	73.6638
620.0000	73.7563
619.9000	73.8554
619.8000	73.9592
619.7000	74.0678
619.6000	74.1826
619.5000	74.3063
619.4000	74.4291
619.3000	74.5531
619.2000	74.6877
619.1000	74.8213
619.0000	74.9541
618.9000	75.093
618.8000	75.2332
618.7000	75.3755
618.6000	75.513
618.5000	75.6536
618.4000	75.7968
618.3000	75.9357
618.2000	76.0763
618.1000	76.2158
618.0000	76.354
617.9000	76.4868
617.8000	76.616
617.7000	76.7461
617.6000	76.8699
617.5000	76.9882
617.4000	77.1067
617.3000	77.2146
617.2000	77.3151
617.1000	77.4111
617.0000	77.5078
616.9000	77.5993
616.8000	77.6767
616.7000	77.7494
616.6000	77.8184
616.5000	77.8752
616.4000	77.9292
616.3000	77.9718
616.2000	78.0039
616.1000	78.0262
616.0000	78.0421
615.9000	78.0495
615.8000	78.0492
615.7000	78.0396
615.6000	78.0209
615.5000	77.9969
615.4000	77.9565
615.3000	77.9105
615.2000	77.8606
615.1000	77.7941
615.0000	77.7176
614.9000	77.6355
614.8000	77.54
614.7000	77.439
614.6000	77.3319
614.5000	77.2173
614.4000	77.0925
614.3000	76.9623
614.2000	76.821
614.1000	76.6771
614.0000	76.5309
613.9000	76.3689
613.8000	76.2056
613.7000	76.0328
613.6000	75.8548
613.5000	75.6824
613.4000	75.5028
613.3000	75.3177
613.2000	75.13
613.1000	74.9408
613.0000	74.7503
612.9000	74.56
612.8000	74.3672
612.7000	74.1771
612.6000	73.9862
612.5000	73.7947
612.4000	73.602
612.3000	73.4152
612.2000	73.2365
612.1000	73.056
612.0000	72.8813
611.9000	72.7027
611.8000	72.5302
611.7000	72.3618
611.6000	72.2021
611.5000	72.0433
611.4000	71.8968
611.3000	71.7524
611.2000	71.6169
611.1000	71.4822
611.0000	71.3578
610.9000	71.2426
610.8000	71.1368
610.7000	71.034
610.6000	70.9386
610.5000	70.8574
610.4000	70.7822
610.3000	70.7177
610.2000	70.6603
610.1000	70.6129
610.0000	70.5736
609.9000	70.5472
609.8000	70.5266
609.7000	70.5159
609.6000	70.5146
609.5000	70.5247
609.4000	70.5431
609.3000	70.5662
609.2000	70.6008
609.1000	70.6459
609.0000	70.6958
608.9000	70.751
608.8000	70.8169
608.7000	70.8923
608.6000	70.9787
608.5000	71.0694
608.4000	71.1695
608.3000	71.2751
608.2000	71.3833
608.1000	71.5024
608.0000	71.6252
607.9000	71.7544
607.8000	71.8867
607.7000	72.0272
607.6000	72.1667
607.5000	72.3128
607.4000	72.462
607.3000	72.6157
607.2000	72.7686
607.1000	72.9194
607.0000	73.0731
606.9000	73.2314
606.8000	73.3854
606.7000	73.5385
606.6000	73.6936
606.5000	73.8476
606.4000	73.9944
606.3000	74.1385
606.2000	74.2824
606.1000	74.4211
606.0000	74.5552
605.9000	74.6858
605.8000	74.8106
605.7000	74.9296
605.6000	75.0431
605.5000	75.1565
605.4000	75.2599
605.3000	75.3518
605.2000	75.4395
605.1000	75.5194
605.0000	75.5904
604.9000	75.6496
604.8000	75.7038
604.7000	75.7512
604.6000	75.7877
604.5000	75.8136
604.4000	75.8313
604.3000	75.8447
604.2000	75.8475
604.1000	75.8413
604.0000	75.8244
603.9000	75.794
603.8000	75.7535
603.7000	75.7076
603.6000	75.6533
603.5000	75.5891
603.4000	75.5162
603.3000	75.4342
603.2000	75.3429
603.1000	75.245
603.0000	75.1327
602.9000	75.0207
602.8000	74.9047
602.7000	74.7718
602.6000	74.6375
602.5000	74.4927
602.4000	74.3454
602.3000	74.1929
602.2000	74.0354
602.1000	73.8738
602.0000	73.7025
601.9000	73.5305
601.8000	73.3535
601.7000	73.1758
601.6000	73.0004
601.5000	72.8221
601.4000	72.6419
601.3000	72.462
601.2000	72.2778
601.1000	72.0989
601.0000	71.9157
600.9000	71.737
600.8000	71.5585
600.7000	71.3839
600.6000	71.2134
600.5000	71.0455
600.4000	70.8816
600.3000	70.7239
600.2000	70.5741
600.1000	70.4273
600.0000	70.3249
599.9000	70.1939
599.8000	70.0684
599.7000	69.953
599.6000	69.8413
599.5000	69.7362
599.4000	69.6427
599.3000	69.5588
599.2000	69.4809
599.1000	69.415
599.0000	69.3571
598.9000	69.3116
598.8000	69.2734
598.7000	69.2482
598.6000	69.2277
598.5000	69.2193
598.4000	69.2194
598.3000	69.2318
598.2000	69.2537
598.1000	69.286
598.0000	69.3285
597.9000	69.3854
597.8000	69.447
597.7000	69.5167
597.6000	69.5935
597.5000	69.6778
597.4000	69.7738
597.3000	69.8769
597.2000	69.9862
597.1000	70.1037
597.0000	70.2345
596.9000	70.3675
596.8000	70.5085
596.7000	70.6571
596.6000	70.8065
596.5000	70.9588
596.4000	71.1184
596.3000	71.2762
596.2000	71.4412
596.1000	71.6092
596.0000	71.7815
595.9000	71.9548
595.8000	72.1257
595.7000	72.3013
595.6000	72.4737
595.5000	72.6436
595.4000	72.8108
595.3000	72.979
595.2000	73.1444
595.1000	73.3028
595.0000	73.4599
594.9000	73.6184
594.8000	73.7667
594.7000	73.9156
594.6000	74.053
594.5000	74.1872
594.4000	74.3133
594.3000	74.4344
594.2000	74.5489
594.1000	74.6524
594.0000	74.7509
593.9000	74.8393
593.8000	74.9169
593.7000	74.9861
593.6000	75.0448
593.5000	75.1015
593.4000	75.149
593.3000	75.1783
593.2000	75.2051
593.1000	75.2195
593.0000	75.2228
592.9000	75.2195
592.8000	75.2028
592.7000	75.18
592.6000	75.1453
592.5000	75.1022
592.4000	75.0522
592.3000	74.9922
592.2000	74.922
592.1000	74.8465
592.0000	74.765
591.9000	74.6682
591.8000	74.5654
591.7000	74.4609
591.6000	74.3469
591.5000	74.2277
591.4000	74.1028
591.3000	73.9723
591.2000	73.8445
591.1000	73.7076
591.0000	73.564
590.9000	73.4245
590.8000	73.2781
590.7000	73.1355
590.6000	72.9905
590.5000	72.8403
590.4000	72.6889
590.3000	72.537
590.2000	72.3885
590.1000	72.2401
590.0000	72.091
589.9000	71.9459
589.8000	71.8084
589.7000	71.6724
589.6000	71.5367
589.5000	71.4052
589.4000	71.285
589.3000	71.1605
589.2000	71.0462
589.1000	70.9342
589.0000	70.8309
588.9000	70.735
588.8000	70.6494
588.7000	70.5694
588.6000	70.4958
588.5000	70.4337
588.4000	70.3775
588.3000	70.3323
588.2000	70.2915
588.1000	70.2569
588.0000	70.2349
587.9000	70.2183
587.8000	70.2156
587.7000	70.2212
587.6000	70.2381
587.5000	70.2617
587.4000	70.2953
587.3000	70.338
587.2000	70.3901
587.1000	70.4536
587.0000	70.5237
586.9000	70.5986
586.8000	70.6903
586.7000	70.788
586.6000	70.8924
586.5000	71.0027
586.4000	71.1182
586.3000	71.246
586.2000	71.3762
586.1000	71.5171
586.0000	71.6567
585.9000	71.803
585.8000	71.9531
585.7000	72.1074
585.6000	72.2638
585.5000	72.4248
585.4000	72.589
585.3000	72.7555
585.2000	72.9168
585.1000	73.0788
585.0000	73.2447
584.9000	73.4105
584.8000	73.5723
584.7000	73.7372
584.6000	73.8955
584.5000	74.0508
584.4000	74.1997
584.3000	74.3475
584.2000	74.4967
584.1000	74.6386
584.0000	74.7718
583.9000	74.9038
583.8000	75.0298
583.7000	75.1446
583.6000	75.2545
583.5000	75.3562
583.4000	75.4492
583.3000	75.5399
583.2000	75.6236
583.1000	75.6923
583.0000	75.7566
582.9000	75.8128
582.8000	75.8638
582.7000	75.9044
582.6000	75.9316
582.5000	75.9535
582.4000	75.9654
582.3000	75.9639
582.2000	75.9547
582.1000	75.9411
582.0000	75.9216
581.9000	75.8912
581.8000	75.8547
581.7000	75.8072
581.6000	75.7537
581.5000	75.6914
581.4000	75.6224
581.3000	75.5394
581.2000	75.4563
581.1000	75.366
581.0000	75.2712
580.9000	75.1635
580.8000	75.0581
580.7000	74.9527
580.6000	74.8385
580.5000	74.7234
580.4000	74.5966
580.3000	74.4714
580.2000	74.3478
580.1000	74.2216
580.0000	74.0935
579.9000	73.9653
579.8000	73.8358
579.7000	73.7137
579.6000	73.5875
579.5000	73.4662
579.4000	73.3407
579.3000	73.2309
579.2000	73.1198
579.1000	73.0101
579.0000	72.9084
578.9000	72.8037
578.8000	72.7157
578.7000	72.6291
578.6000	72.5437
578.5000	72.4681
578.4000	72.3998
578.3000	72.3413
578.2000	72.288
578.1000	72.241
578.0000	72.2048
577.9000	72.1738
577.8000	72.1563
577.7000	72.1414
577.6000	72.1355
577.5000	72.134
577.4000	72.1418
577.3000	72.1629
577.2000	72.1896
577.1000	72.2255
577.0000	72.2717
576.9000	72.3222
576.8000	72.3805
576.7000	72.444
576.6000	72.52
576.5000	72.6008
576.4000	72.6862
576.3000	72.7807
576.2000	72.8777
576.1000	72.9791
576.0000	73.0882
575.9000	73.201
575.8000	73.3185
575.7000	73.4434
575.6000	73.5675
575.5000	73.6916
575.4000	73.8191
575.3000	73.9527
575.2000	74.0876
575.1000	74.2202
575.0000	74.3543
574.9000	74.4916
574.8000	74.6261
574.7000	74.7565
574.6000	74.8874
574.5000	75.0188
574.4000	75.1446
574.3000	75.2696
574.2000	75.3864
574.1000	75.4979
574.0000	75.6094
573.9000	75.7161
573.8000	75.8171
573.7000	75.9098
573.6000	75.9923
573.5000	76.0758
573.4000	76.1497
573.3000	76.2153
573.2000	76.2695
573.1000	76.3223
573.0000	76.3667
572.9000	76.402
572.8000	76.4274
572.7000	76.4441
572.6000	76.4585
572.5000	76.4609
572.4000	76.4519
572.3000	76.4374
572.2000	76.416
572.1000	76.3871
572.0000	76.3529
571.9000	76.3038
571.8000	76.2472
571.7000	76.1849
571.6000	76.1184
571.5000	76.0404
571.4000	75.9563
571.3000	75.8679
571.2000	75.7751
571.1000	75.6738
571.0000	75.5657
570.9000	75.4537
570.8000	75.3389
570.7000	75.2236
570.6000	75.1007
570.5000	74.9753
570.4000	74.8475
570.3000	74.721
570.2000	74.5941
570.1000	74.4663
570.0000	74.3374
569.9000	74.2115
569.8000	74.0864
569.7000	73.9607
569.6000	73.8369
569.5000	73.7204
569.4000	73.6083
569.3000	73.5003
569.2000	73.3954
569.1000	73.2928
569.0000	73.194
568.9000	73.102
568.8000	73.0204
568.7000	72.9385
568.6000	72.864
568.5000	72.7973
568.4000	72.7402
568.3000	72.688
568.2000	72.6455
568.1000	72.6099
568.0000	72.5825
567.9000	72.5622
567.8000	72.5456
567.7000	72.5391
567.6000	72.5433
567.5000	72.5558
567.4000	72.5745
567.3000	72.6031
567.2000	72.6356
567.1000	72.6787
567.0000	72.7264
566.9000	72.7792
566.8000	72.8412
566.7000	72.9071
566.6000	72.9775
566.5000	73.0557
566.4000	73.1364
566.3000	73.2266
566.2000	73.3206
566.1000	73.42
566.0000	73.517
565.9000	73.6126
565.8000	73.718
565.7000	73.8203
565.6000	73.9236
565.5000	74.0333
565.4000	74.141
565.3000	74.2453
565.2000	74.3499
565.1000	74.4506
565.0000	74.5553
564.9000	74.6546
564.8000	74.7517
564.7000	74.8381
564.6000	74.9259
564.5000	75.0084
564.4000	75.0854
564.3000	75.1578
564.2000	75.2214
564.1000	75.2797
564.0000	75.3316
563.9000	75.3745
563.8000	75.4119
563.7000	75.444
563.6000	75.4673
563.5000	75.4826
563.4000	75.4828
563.3000	75.479
563.2000	75.4687
563.1000	75.4538
563.0000	75.4228
562.9000	75.3823
562.8000	75.3389
562.7000	75.2864
562.6000	75.2239
562.5000	75.156
562.4000	75.0814
562.3000	74.9962
562.2000	74.9039
562.1000	74.8084
562.0000	74.6977
561.9000	74.5889
561.8000	74.476
561.7000	74.355
561.6000	74.2271
561.5000	74.0965
561.4000	73.9646
561.3000	73.8293
561.2000	73.6894
561.1000	73.548
561.0000	73.4081
560.9000	73.261
560.8000	73.115
560.7000	72.9685
560.6000	72.8243
560.5000	72.6755
560.4000	72.5351
560.3000	72.3963
560.2000	72.2559
560.1000	72.1199
560.0000	71.9875
559.9000	71.8573
559.8000	71.73
559.7000	71.6062
559.6000	71.4914
559.5000	71.3826
559.4000	71.2807
559.3000	71.1858
559.2000	71.0974
559.1000	71.0196
559.0000	70.942
558.9000	70.8786
558.8000	70.822
558.7000	70.7729
558.6000	70.7334
558.5000	70.7012
558.4000	70.6773
558.3000	70.6613
558.2000	70.6568
558.1000	70.6608
558.0000	70.6691
557.9000	70.6875
557.8000	70.7098
557.7000	70.7425
557.6000	70.7839
557.5000	70.8319
557.4000	70.8912
557.3000	70.9525
557.2000	71.0228
557.1000	71.094
557.0000	71.1724
556.9000	71.2537
556.8000	71.3414
556.7000	71.4351
556.6000	71.5307
556.5000	71.6286
556.4000	71.73
556.3000	71.8318
556.2000	71.9355
556.1000	72.0397
556.0000	72.1427
555.9000	72.2425
555.8000	72.3389
555.7000	72.4352
555.6000	72.5288
555.5000	72.6196
555.4000	72.7059
555.3000	72.7891
555.2000	72.8677
555.1000	72.9387
555.0000	73.0038
554.9000	73.0659
554.8000	73.1157
554.7000	73.1597
554.6000	73.1965
554.5000	73.2242
554.4000	73.2444
554.3000	73.259
554.2000	73.2646
554.1000	73.26
554.0000	73.2445
553.9000	73.224
553.8000	73.1969
553.7000	73.1597
553.6000	73.113
553.5000	73.0574
553.4000	72.9959
553.3000	72.9222
553.2000	72.8457
553.1000	72.7591
553.0000	72.6688
552.9000	72.5686
552.8000	72.4576
552.7000	72.3402
552.6000	72.222
552.5000	72.0957
552.4000	71.9657
552.3000	71.829
552.2000	71.6864
552.1000	71.542
552.0000	71.3953
551.9000	71.2467
551.8000	71.0962
551.7000	70.9452
551.6000	70.7949
551.5000	70.6438
551.4000	70.4892
551.3000	70.3407
551.2000	70.1952
551.1000	70.0534
551.0000	69.9138
550.9000	69.7805
550.8000	69.6474
550.7000	69.5202
550.6000	69.3999
550.5000	69.2829
550.4000	69.1715
550.3000	69.0696
550.2000	68.9708
550.1000	68.8851
550.0000	68.804
549.9000	68.7291
549.8000	68.6658
549.7000	68.6128
549.6000	68.5662
549.5000	68.5291
549.4000	68.4999
549.3000	68.4801
549.2000	68.473
549.1000	68.4763
549.0000	68.4832
548.9000	68.5032
548.8000	68.5317
548.7000	68.5654
548.6000	68.6143
548.5000	68.6617
548.4000	68.7193
548.3000	68.7925
548.2000	68.8681
548.1000	68.948
548.0000	69.0327
547.9000	69.1261
547.8000	69.2232
547.7000	69.3222
547.6000	69.4234
547.5000	69.5284
547.4000	69.6401
547.3000	69.7539
547.2000	69.8646
547.1000	69.9777
547.0000	70.0896
546.9000	70.207
546.8000	70.3187
546.7000	70.4267
546.6000	70.5352
546.5000	70.6384
546.4000	70.7441
546.3000	70.838
546.2000	70.932
546.1000	71.0224
546.0000	71.1092
545.9000	71.1835
545.8000	71.251
545.7000	71.3113
545.6000	71.3692
545.5000	71.4195
545.4000	71.4585
545.3000	71.49
545.2000	71.5143
545.1000	71.5304
545.0000	71.5335
544.9000	71.5346
544.8000	71.5247
544.7000	71.5081
544.6000	71.4794
544.5000	71.443
544.4000	71.3982
544.3000	71.3536
544.2000	71.2976
544.1000	71.2321
544.0000	71.1601
543.9000	71.082
543.8000	70.9933
543.7000	70.9011
543.6000	70.8034
543.5000	70.698
543.4000	70.5943
543.3000	70.4808
543.2000	70.3672
543.1000	70.2501
543.0000	70.1302
542.9000	70.0095
542.8000	69.8874
542.7000	69.7615
542.6000	69.6368
542.5000	69.5106
542.4000	69.3876
542.3000	69.2648
542.2000	69.1482
542.1000	69.0308
542.0000	68.9202
541.9000	68.8135
541.8000	68.7081
541.7000	68.6108
541.6000	68.5143
541.5000	68.4257
541.4000	68.3439
541.3000	68.2703
541.2000	68.2003
541.1000	68.1406
541.0000	68.0898
540.9000	68.0512
540.8000	68.0164
540.7000	67.9928
540.6000	67.9781
540.5000	67.9721
540.4000	67.9718
540.3000	67.9801
540.2000	68.0022
540.1000	68.0254
540.0000	68.0596
539.9000	68.1026
539.8000	68.1558
539.7000	68.2181
539.6000	68.2848
539.5000	68.3575
539.4000	68.4378
539.3000	68.5221
539.2000	68.6161
539.1000	68.7133
539.0000	68.8154
538.9000	68.9218
538.8000	69.0326
538.7000	69.1482
538.6000	69.2614
538.5000	69.3827
538.4000	69.5091
538.3000	69.6316
538.2000	69.7541
538.1000	69.8721
538.0000	69.9959
537.9000	70.1157
537.8000	70.2352
537.7000	70.3493
537.6000	70.4595
537.5000	70.5662
537.4000	70.6685
537.3000	70.7646
537.2000	70.86
537.1000	70.9494
537.0000	71.0297
536.9000	71.1058
536.8000	71.1697
536.7000	71.2271
536.6000	71.28
536.5000	71.3295
536.4000	71.3669
536.3000	71.3993
536.2000	71.4213
536.1000	71.4405
536.0000	71.4516
535.9000	71.4502
535.8000	71.4422
535.7000	71.4294
535.6000	71.4072
535.5000	71.3769
535.4000	71.3471
535.3000	71.3066
535.2000	71.2628
535.1000	71.2125
535.0000	71.1553
534.9000	71.0887
534.8000	71.0222
534.7000	70.9502
534.6000	70.876
534.5000	70.7963
534.4000	70.7123
534.3000	70.6311
534.2000	70.5455
534.1000	70.4597
534.0000	70.3706
533.9000	70.2855
533.8000	70.1972
533.7000	70.1133
533.6000	70.0271
533.5000	69.948
533.4000	69.8729
533.3000	69.7984
533.2000	69.7229
533.1000	69.6545
533.0000	69.5904
532.9000	69.5348
532.8000	69.4855
532.7000	69.4396
532.6000	69.4045
532.5000	69.375
532.4000	69.3522
532.3000	69.3327
532.2000	69.3241
532.1000	69.3189
532.0000	69.322
531.9000	69.3334
531.8000	69.3491
531.7000	69.3774
531.6000	69.4169
531.5000	69.4578
531.4000	69.5072
531.3000	69.5615
531.2000	69.6221
531.1000	69.6892
531.0000	69.7623
530.9000	69.8391
530.8000	69.9187
530.7000	70.0073
530.6000	70.1008
530.5000	70.1959
530.4000	70.2944
530.3000	70.3948
530.2000	70.4945
530.1000	70.5982
530.0000	70.6997
529.9000	70.8072
529.8000	70.9122
529.7000	71.0139
529.6000	71.1162
529.5000	71.2163
529.4000	71.3139
529.3000	71.4101
529.2000	71.5066
529.1000	71.5903
529.0000	71.6727
528.9000	71.7561
528.8000	71.8358
528.7000	71.9043
528.6000	71.9719
528.5000	72.0281
528.4000	72.086
528.3000	72.1302
528.2000	72.1712
528.1000	72.2066
528.0000	72.2363
527.9000	72.2589
527.8000	72.2711
527.7000	72.276
527.6000	72.2733
527.5000	72.2751
527.4000	72.2632
527.3000	72.2439
527.2000	72.2163
527.1000	72.1858
527.0000	72.1518
526.9000	72.114
526.8000	72.0667
526.7000	72.0182
526.6000	71.9634
526.5000	71.9076
526.4000	71.8438
526.3000	71.7814
526.2000	71.7191
526.1000	71.6535
526.0000	71.589
525.9000	71.5174
525.8000	71.4501
525.7000	71.3782
525.6000	71.311
525.5000	71.2453
525.4000	71.1785
525.3000	71.1134
525.2000	71.0501
525.1000	70.9936
525.0000	70.9371
524.9000	70.8856
524.8000	70.8388
524.7000	70.7914
524.6000	70.7513
524.5000	70.7185
524.4000	70.6884
524.3000	70.6664
524.2000	70.6448
524.1000	70.6329
524.0000	70.626
523.9000	70.6257
523.8000	70.6331
523.7000	70.6447
523.6000	70.6622
523.5000	70.6822
523.4000	70.7132
523.3000	70.7442
523.2000	70.7823
523.1000	70.8295
523.0000	70.8763
522.9000	70.9278
522.8000	70.9813
522.7000	71.0341
522.6000	71.0952
522.5000	71.1597
522.4000	71.2236
522.3000	71.2882
522.2000	71.3545
522.1000	71.4203
522.0000	71.4857
521.9000	71.5522
521.8000	71.6201
521.7000	71.6855
521.6000	71.7472
521.5000	71.8105
521.4000	71.8705
521.3000	71.9223
521.2000	71.9749
521.1000	72.0269
521.0000	72.0696
520.9000	72.1087
520.8000	72.1397
520.7000	72.1714
520.6000	72.1928
520.5000	72.2168
520.4000	72.231
520.3000	72.2367
520.2000	72.2318
520.1000	72.2246
520.0000	72.2732
519.9000	72.2539
519.8000	72.2259
519.7000	72.1944
519.6000	72.1536
519.5000	72.109
519.4000	72.064
519.3000	72.0041
519.2000	71.9458
519.1000	71.8857
519.0000	71.8212
518.9000	71.7508
518.8000	71.6731
518.7000	71.6
518.6000	71.5199
518.5000	71.4402
518.4000	71.3579
518.3000	71.2747
518.2000	71.1939
518.1000	71.1127
518.0000	71.0345
517.9000	70.9524
517.8000	70.8703
517.7000	70.7967
517.6000	70.7176
517.5000	70.6423
517.4000	70.5691
517.3000	70.5034
517.2000	70.4443
517.1000	70.3825
517.0000	70.3288
516.9000	70.2781
516.8000	70.235
516.7000	70.1947
516.6000	70.1523
516.5000	70.1217
516.4000	70.0966
516.3000	70.0789
516.2000	70.0623
516.1000	70.0504
516.0000	70.047
515.9000	70.0513
515.8000	70.0606
515.7000	70.0695
515.6000	70.0827
515.5000	70.1034
515.4000	70.1255
515.3000	70.1532
515.2000	70.1848
515.1000	70.2208
515.0000	70.2598
514.9000	70.2959
514.8000	70.333
514.7000	70.3737
514.6000	70.4169
514.5000	70.4589
514.4000	70.5027
514.3000	70.5399
514.2000	70.5805
514.1000	70.6194
514.0000	70.6536
513.9000	70.685
513.8000	70.7146
513.7000	70.7394
513.6000	70.762
513.5000	70.7799
513.4000	70.7982
513.3000	70.8073
513.2000	70.815
513.1000	70.8154
513.0000	70.8092
512.9000	70.7985
512.8000	70.7823
512.7000	70.7616
512.6000	70.7344
512.5000	70.7037
512.4000	70.6704
512.3000	70.6253
512.2000	70.5768
512.1000	70.5243
512.0000	70.4646
511.9000	70.3984
511.8000	70.3247
511.7000	70.2513
511.6000	70.1725
511.5000	70.0882
511.4000	70.0053
511.3000	69.9173
511.2000	69.8233
511.1000	69.7327
511.0000	69.6308
510.9000	69.5331
510.8000	69.4299
510.7000	69.3337
510.6000	69.2371
510.5000	69.1391
510.4000	69.0375
510.3000	68.9388
510.2000	68.8452
510.1000	68.7576
510.0000	68.668
509.9000	68.5813
509.8000	68.495
509.7000	68.4151
509.6000	68.345
509.5000	68.2721
509.4000	68.2078
509.3000	68.1485
509.2000	68.0955
509.1000	68.0477
509.0000	68.0025
508.9000	67.968
508.8000	67.9421
508.7000	67.9198
508.6000	67.9035
508.5000	67.89
508.4000	67.8843
508.3000	67.8862
508.2000	67.8942
508.1000	67.907
508.0000	67.9195
507.9000	67.9405
507.8000	67.9719
507.7000	67.9998
507.6000	68.0301
507.5000	68.0624
507.4000	68.1011
507.3000	68.1388
507.2000	68.1789
507.1000	68.2211
507.0000	68.2643
506.9000	68.3059
506.8000	68.3457
506.7000	68.3826
506.6000	68.4223
506.5000	68.4558
506.4000	68.4915
506.3000	68.5246
506.2000	68.5503
506.1000	68.5745
506.0000	68.5961
505.9000	68.6141
505.8000	68.6242
505.7000	68.6282
505.6000	68.6294
505.5000	68.6263
505.4000	68.6142
505.3000	68.6011
505.2000	68.5811
505.1000	68.5561
505.0000	68.5246
504.9000	68.4877
504.8000	68.4421
504.7000	68.3912
504.6000	68.3379
504.5000	68.2775
504.4000	68.2147
504.3000	68.1497
504.2000	68.0791
504.1000	68.0069
504.0000	67.9276
503.9000	67.8429
503.8000	67.7596
503.7000	67.6701
503.6000	67.5821
503.5000	67.4952
503.4000	67.4037
503.3000	67.3196
503.2000	67.2343
503.1000	67.147
503.0000	67.0655
502.9000	66.984
502.8000	66.9043
502.7000	66.8244
502.6000	66.7514
502.5000	66.6809
502.4000	66.6167
502.3000	66.5596
502.2000	66.5028
502.1000	66.4536
502.0000	66.4128
501.9000	66.3726
501.8000	66.338
501.7000	66.3093
501.6000	66.2886
501.5000	66.2761
501.4000	66.2614
501.3000	66.2594
501.2000	66.2636
501.1000	66.2723
501.0000	66.2849
500.9000	66.3044
500.8000	66.328
500.7000	66.3569
500.6000	66.3918
500.5000	66.4269
500.4000	66.4635
500.3000	66.5095
500.2000	66.5585
500.1000	66.6068
500.0000	66.6578
499.9000	66.7076
499.8000	66.7672
499.7000	66.8209
499.6000	66.8715
499.5000	66.9246
499.4000	66.9798
499.3000	67.0314
499.2000	67.081
499.1000	67.1314
499.0000	67.1779
498.9000	67.2256
498.8000	67.2677
498.7000	67.3042
498.6000	67.335
498.5000	67.362
498.4000	67.3844
498.3000	67.4063
498.2000	67.4183
498.1000	67.4323
498.0000	67.4405
497.9000	67.4419
497.8000	67.4396
497.7000	67.4321
497.6000	67.4217
497.5000	67.4019
497.4000	67.3775
497.3000	67.3516
497.2000	67.3213
497.1000	67.2876
497.0000	67.2528
496.9000	67.2136
496.8000	67.17
496.7000	67.1251
496.6000	67.0757
496.5000	67.0231
496.4000	66.9701
496.3000	66.9217
496.2000	66.869
496.1000	66.8164
496.0000	66.7662
495.9000	66.717
495.8000	66.6736
495.7000	66.6256
495.6000	66.584
495.5000	66.5463
495.4000	66.5079
495.3000	66.4745
495.2000	66.4471
495.1000	66.4194
495.0000	66.4013
494.9000	66.3815
494.8000	66.3731
494.7000	66.3634
494.6000	66.3613
494.5000	66.3673
494.4000	66.3766
494.3000	66.3881
494.2000	66.405
494.1000	66.4284
494.0000	66.4514
493.9000	66.4789
493.8000	66.5157
493.7000	66.5544
493.6000	66.5985
493.5000	66.6481
493.4000	66.6925
493.3000	66.7461
493.2000	66.7989
493.1000	66.8597
493.0000	66.9154
492.9000	66.9717
492.8000	67.0265
492.7000	67.0875
492.6000	67.1468
492.5000	67.2014
492.4000	67.259
492.3000	67.3191
492.2000	67.3746
492.1000	67.4301
492.0000	67.4787
491.9000	67.524
491.8000	67.5738
491.7000	67.6182
491.6000	67.6586
491.5000	67.6941
491.4000	67.7296
491.3000	67.7586
491.2000	67.7893
491.1000	67.811
491.0000	67.8296
490.9000	67.8463
490.8000	67.8573
490.7000	67.8641
490.6000	67.8692
490.5000	67.869
490.4000	67.8677
490.3000	67.8648
490.2000	67.8536
490.1000	67.8431
490.0000	67.8308
489.9000	67.8134
489.8000	67.7948
489.7000	67.7779
489.6000	67.7552
489.5000	67.7361
489.4000	67.7148
489.3000	67.6968
489.2000	67.6792
489.1000	67.6592
489.0000	67.6401
488.9000	67.624
488.8000	67.612
488.7000	67.6019
488.6000	67.5934
488.5000	67.5862
488.4000	67.5786
488.3000	67.5763
488.2000	67.5793
488.1000	67.5805
488.0000	67.5855
487.9000	67.5953
487.8000	67.6053
487.7000	67.6189
487.6000	67.6359
487.5000	67.6549
487.4000	67.677
487.3000	67.7002
487.2000	67.7249
487.1000	67.75
487.0000	67.7773
486.9000	67.8053
486.8000	67.8377
486.7000	67.8723
486.6000	67.9068
486.5000	67.9448
486.4000	67.9824
486.3000	68.0158
486.2000	68.0561
486.1000	68.0935
486.0000	68.1268
485.9000	68.163
485.8000	68.196
485.7000	68.2299
485.6000	68.2604
485.5000	68.2904
485.4000	68.3199
485.3000	68.3491
485.2000	68.3781
485.1000	68.3991
485.0000	68.4167
484.9000	68.4292
484.8000	68.4416
484.7000	68.4514
484.6000	68.4564
484.5000	68.4606
484.4000	68.4632
484.3000	68.4588
484.2000	68.4543
484.1000	68.4468
484.0000	68.4393
483.9000	68.4283
483.8000	68.4174
483.7000	68.403
483.6000	68.3835
483.5000	68.3657
483.4000	68.3457
483.3000	68.3294
483.2000	68.3088
483.1000	68.2908
483.0000	68.2691
482.9000	68.2485
482.8000	68.2264
482.7000	68.2079
482.6000	68.1891
482.5000	68.1708
482.4000	68.1492
482.3000	68.132
482.2000	68.1129
482.1000	68.1001
482.0000	68.0875
481.9000	68.0766
481.8000	68.0685
481.7000	68.0597
481.6000	68.0526
481.5000	68.0485
481.4000	68.0464
481.3000	68.0425
481.2000	68.049
481.1000	68.0528
481.0000	68.0559
480.9000	68.0607
480.8000	68.0678
480.7000	68.0728
480.6000	68.0836
480.5000	68.0913
480.4000	68.0996
480.3000	68.1068
480.2000	68.1113
480.1000	68.116
480.0000	68.1245
479.9000	68.1266
479.8000	68.1298
479.7000	68.1367
479.6000	68.1304
479.5000	68.1297
479.4000	68.1246
479.3000	68.1184
479.2000	68.1078
479.1000	68.0983
479.0000	68.088
478.9000	68.0731
478.8000	68.0537
478.7000	68.0324
478.6000	68.012
478.5000	67.9912
478.4000	67.9626
478.3000	67.9323
478.2000	67.8978
478.1000	67.8619
478.0000	67.8315
477.9000	67.7914
477.8000	67.7534
477.7000	67.7139
477.6000	67.6765
477.5000	67.6329
477.4000	67.5856
477.3000	67.5388
477.2000	67.4945
477.1000	67.4481
477.0000	67.4003
476.9000	67.3524
476.8000	67.3047
476.7000	67.2621
476.6000	67.2213
476.5000	67.1767
476.4000	67.1315
476.3000	67.0894
476.2000	67.0494
476.1000	67.0115
476.0000	66.9744
475.9000	66.9411
475.8000	66.9101
475.7000	66.8771
475.6000	66.8444
475.5000	66.8148
475.4000	66.7911
475.3000	66.7698
475.2000	66.7488
475.1000	66.7249
475.0000	66.706
474.9000	66.6862
474.8000	66.6725
474.7000	66.6593
474.6000	66.6424
474.5000	66.6241
474.4000	66.6089
474.3000	66.5915
474.2000	66.575
474.1000	66.563
474.0000	66.5506
473.9000	66.5402
473.8000	66.5243
473.7000	66.5031
473.6000	66.4853
473.5000	66.47
473.4000	66.4499
473.3000	66.4301
473.2000	66.4007
473.1000	66.374
473.0000	66.3497
472.9000	66.3201
472.8000	66.2905
472.7000	66.2577
472.6000	66.2226
472.5000	66.1829
472.4000	66.1424
472.3000	66.0973
472.2000	66.0502
472.1000	66.001
472.0000	65.9501
471.9000	65.895
471.8000	65.8392
471.7000	65.78
471.6000	65.7238
471.5000	65.6668
471.4000	65.6058
471.3000	65.5487
471.2000	65.4861
471.1000	65.4303
471.0000	65.37
470.9000	65.3117
470.8000	65.2549
470.7000	65.1997
470.6000	65.1436
470.5000	65.0912
470.4000	65.0411
470.3000	64.9927
470.2000	64.9435
470.1000	64.8998
470.0000	64.8576
469.9000	64.8116
469.8000	64.7726
469.7000	64.736
469.6000	64.7025
469.5000	64.67
469.4000	64.6399
469.3000	64.6122
469.2000	64.5867
469.1000	64.5611
469.0000	64.541
468.9000	64.5235
468.8000	64.5033
468.7000	64.4843
468.6000	64.4699
468.5000	64.4549
468.4000	64.4424
468.3000	64.4331
468.2000	64.4218
468.1000	64.4112
468.0000	64.3969
467.9000	64.382
467.8000	64.3703
467.7000	64.3606
467.6000	64.3466
467.5000	64.3315
467.4000	64.3123
467.3000	64.2962
467.2000	64.2808
467.1000	64.2633
467.0000	64.2441
466.9000	64.2208
466.8000	64.1973
466.7000	64.1706
466.6000	64.1432
466.5000	64.1102
466.4000	64.0857
466.3000	64.0566
466.2000	64.0246
466.1000	63.9851
466.0000	63.9505
465.9000	63.9146
465.8000	63.8829
465.7000	63.8456
465.6000	63.8077
465.5000	63.7701
465.4000	63.7316
465.3000	63.6937
465.2000	63.6577
465.1000	63.6205
465.0000	63.5869
464.9000	63.5577
464.8000	63.5216
464.7000	63.4861
464.6000	63.455
464.5000	63.4255
464.4000	63.3974
464.3000	63.3712
464.2000	63.3443
464.1000	63.3195
464.0000	63.2972
463.9000	63.2769
463.8000	63.2624
463.7000	63.247
463.6000	63.2336
463.5000	63.2236
463.4000	63.2121
463.3000	63.2005
463.2000	63.1938
463.1000	63.1917
463.0000	63.1867
462.9000	63.1861
462.8000	63.1845
462.7000	63.1853
462.6000	63.1841
462.5000	63.1889
462.4000	63.189
462.3000	63.1928
462.2000	63.1944
462.1000	63.2008
462.0000	63.2054
461.9000	63.2086
461.8000	63.2092
461.7000	63.2119
461.6000	63.2138
461.5000	63.2131
461.4000	63.2106
461.3000	63.2088
461.2000	63.2075
461.1000	63.2039
461.0000	63.2049
460.9000	63.1963
460.8000	63.1947
460.7000	63.1898
460.6000	63.1834
460.5000	63.1756
460.4000	63.1635
460.3000	63.1567
460.2000	63.1514
460.1000	63.1425
460.0000	63.1335
459.9000	63.1235
459.8000	63.1183
459.7000	63.1127
459.6000	63.1075
459.5000	63.1033
459.4000	63.096
459.3000	63.0957
459.2000	63.0904
459.1000	63.0866
459.0000	63.0825
458.9000	63.0812
458.8000	63.0824
458.7000	63.0829
458.6000	63.084
458.5000	63.0891
458.4000	63.0943
458.3000	63.1041
458.2000	63.11
458.1000	63.1185
458.0000	63.1269
457.9000	63.1374
457.8000	63.1494
457.7000	63.1573
457.6000	63.1695
457.5000	63.1828
457.4000	63.1949
457.3000	63.21
457.2000	63.2244
457.1000	63.2354
457.0000	63.2467
456.9000	63.2588
456.8000	63.2678
456.7000	63.2778
456.6000	63.292
456.5000	63.3006
456.4000	63.3097
456.3000	63.3156
456.2000	63.3215
456.1000	63.3268
456.0000	63.3326
455.9000	63.3367
455.8000	63.3389
455.7000	63.3397
455.6000	63.3368
455.5000	63.3411
455.4000	63.3419
455.3000	63.3401
455.2000	63.342
455.1000	63.3372
455.0000	63.3339
454.9000	63.3307
454.8000	63.3258
454.7000	63.3214
454.6000	63.319
454.5000	63.3207
454.4000	63.3191
454.3000	63.3175
454.2000	63.3213
454.1000	63.3229
454.0000	63.3271
453.9000	63.3303
453.8000	63.3363
453.7000	63.3407
453.6000	63.349
453.5000	63.3603
453.4000	63.3677
453.3000	63.381
453.2000	63.3932
453.1000	63.4083
453.0000	63.4229
452.9000	63.4347
452.8000	63.4491
452.7000	63.4648
452.6000	63.4765
452.5000	63.4908
452.4000	63.5048
452.3000	63.5131
452.2000	63.5244
452.1000	63.535
452.0000	63.5413
451.9000	63.5471
451.8000	63.5569
451.7000	63.5618
451.6000	63.5619
451.5000	63.5647
451.4000	63.5561
451.3000	63.552
451.2000	63.5469
451.1000	63.5361
451.0000	63.5276
450.9000	63.5113
450.8000	63.4975
450.7000	63.4839
450.6000	63.4653
450.5000	63.4476
450.4000	63.4255
450.3000	63.4062
450.2000	63.38
450.1000	63.3542
450.0000	63.3325
449.9000	63.3045
449.8000	63.285
449.7000	63.2583
449.6000	63.2336
449.5000	63.211
449.4000	63.1857
449.3000	63.1648
449.2000	63.1447
449.1000	63.1186
449.0000	63.0967
448.9000	63.0754
448.8000	63.0539
448.7000	63.0312
448.6000	63.0134
448.5000	62.9975
448.4000	62.9838
448.3000	62.9733
448.2000	62.9579
448.1000	62.9443
448.0000	62.9331
447.9000	62.9179
447.8000	62.9061
447.7000	62.8972
447.6000	62.8816
447.5000	62.8728
447.4000	62.8638
447.3000	62.8549
447.2000	62.844
447.1000	62.8319
447.0000	62.8199
446.9000	62.802
446.8000	62.7834
446.7000	62.7597
446.6000	62.7391
446.5000	62.7193
446.4000	62.6916
446.3000	62.6654
446.2000	62.6355
446.1000	62.6029
446.0000	62.5691
445.9000	62.5347
445.8000	62.4946
445.7000	62.4501
445.6000	62.4062
445.5000	62.3628
445.4000	62.3093
445.3000	62.2588
445.2000	62.2046
445.1000	62.1552
445.0000	62.0993
444.9000	62.0372
444.8000	61.9808
444.7000	61.9222
444.6000	61.8648
444.5000	61.8053
444.4000	61.7468
444.3000	61.6851
444.2000	61.6272
444.1000	61.5713
444.0000	61.519
443.9000	61.4648
443.8000	61.4185
443.7000	61.3692
443.6000	61.3229
443.5000	61.2711
443.4000	61.2291
443.3000	61.1928
443.2000	61.1488
443.1000	61.1094
443.0000	61.0668
442.9000	61.0293
442.8000	60.9932
442.7000	60.9587
442.6000	60.9256
442.5000	60.8937
442.4000	60.8573
442.3000	60.8209
442.2000	60.7813
442.1000	60.7472
442.0000	60.7108
441.9000	60.676
441.8000	60.6367
441.7000	60.5964
441.6000	60.5588
441.5000	60.5195
441.4000	60.4831
441.3000	60.439
441.2000	60.3896
441.1000	60.3424
441.0000	60.2901
440.9000	60.2352
440.8000	60.1814
440.7000	60.1252
440.6000	60.0669
440.5000	60.007
440.4000	59.9434
440.3000	59.8819
440.2000	59.8219
440.1000	59.7573
440.0000	59.687
439.9000	59.6182
439.8000	59.5491
439.7000	59.4808
439.6000	59.4157
439.5000	59.3479
439.4000	59.2822
439.3000	59.2154
439.2000	59.1534
439.1000	59.0917
439.0000	59.029
438.9000	58.971
438.8000	58.916
438.7000	58.8615
438.6000	58.8065
438.5000	58.7555
438.4000	58.7087
438.3000	58.665
438.2000	58.6235
438.1000	58.5826
438.0000	58.5435
437.9000	58.5092
437.8000	58.4724
437.7000	58.4426
437.6000	58.41
437.5000	58.3804
437.4000	58.3548
437.3000	58.3208
437.2000	58.2887
437.1000	58.2601
437.0000	58.2301
436.9000	58.2015
436.8000	58.1715
436.7000	58.1383
436.6000	58.1042
436.5000	58.0714
436.4000	58.0356
436.3000	57.9963
436.2000	57.9591
436.1000	57.9165
436.0000	57.8724
435.9000	57.8261
435.8000	57.781
435.7000	57.738
435.6000	57.6908
435.5000	57.6405
435.4000	57.5901
435.3000	57.539
435.2000	57.4902
435.1000	57.4399
435.0000	57.3845
434.9000	57.3315
434.8000	57.2822
434.7000	57.2355
434.6000	57.186
434.5000	57.1382
434.4000	57.0929
434.3000	57.0508
434.2000	57.0061
434.1000	56.9632
434.0000	56.9265
433.9000	56.8931
433.8000	56.8607
433.7000	56.8255
433.6000	56.7965
433.5000	56.7704
433.4000	56.7518
433.3000	56.7319
433.2000	56.7174
433.1000	56.6987
433.0000	56.6864
432.9000	56.6761
432.8000	56.6642
432.7000	56.6514
432.6000	56.6403
432.5000	56.6326
432.4000	56.6265
432.3000	56.6132
432.2000	56.6028
432.1000	56.5935
432.0000	56.5817
431.9000	56.567
431.8000	56.5538
431.7000	56.5343
431.6000	56.5133
431.5000	56.4949
431.4000	56.4726
431.3000	56.4509
431.2000	56.4253
431.1000	56.4033
431.0000	56.376
430.9000	56.3472
430.8000	56.3133
430.7000	56.2823
430.6000	56.2507
430.5000	56.2174
430.4000	56.186
430.3000	56.1533
430.2000	56.1176
430.1000	56.0897
430.0000	56.0564
429.9000	56.0223
429.8000	55.996
429.7000	55.9651
429.6000	55.939
429.5000	55.9118
429.4000	55.8884
429.3000	55.865
429.2000	55.8454
429.1000	55.8305
429.0000	55.8114
428.9000	55.7991
428.8000	55.7831
428.7000	55.7722
428.6000	55.7634
428.5000	55.7548
428.4000	55.7487
428.3000	55.7469
428.2000	55.7381
428.1000	55.732
428.0000	55.7264
427.9000	55.7214
427.8000	55.7188
427.7000	55.7115
427.6000	55.7032
427.5000	55.695
427.4000	55.6862
427.3000	55.6754
427.2000	55.6624
427.1000	55.6465
427.0000	55.6328
426.9000	55.6088
426.8000	55.5903
426.7000	55.5652
426.6000	55.5398
426.5000	55.5149
426.4000	55.4859
426.3000	55.4526
426.2000	55.4176
426.1000	55.387
426.0000	55.3568
425.9000	55.3203
425.8000	55.2901
425.7000	55.2563
425.6000	55.2232
425.5000	55.1931
425.4000	55.1572
425.3000	55.1287
425.2000	55.0898
425.1000	55.0573
425.0000	55.0244
424.9000	54.9959
424.8000	54.9672
424.7000	54.9412
424.6000	54.9163
424.5000	54.8912
424.4000	54.8632
424.3000	54.8357
424.2000	54.8056
424.1000	54.7789
424.0000	54.7546
423.9000	54.7283
423.8000	54.7032
423.7000	54.6769
423.6000	54.6576
423.5000	54.6364
423.4000	54.6131
423.3000	54.5844
423.2000	54.5583
423.1000	54.5313
423.0000	54.4988
422.9000	54.4662
422.8000	54.4342
422.7000	54.4015
422.6000	54.3678
422.5000	54.3322
422.4000	54.2919
422.3000	54.2523
422.2000	54.2102
422.1000	54.1667
422.0000	54.1185
421.9000	54.0682
421.8000	54.0182
421.7000	53.9687
421.6000	53.9178
421.5000	53.8639
421.4000	53.8109
421.3000	53.7565
421.2000	53.7031
421.1000	53.6483
421.0000	53.591
420.9000	53.5348
420.8000	53.4812
420.7000	53.4214
420.6000	53.3643
420.5000	53.3103
420.4000	53.2567
420.3000	53.1994
420.2000	53.1445
420.1000	53.0916
420.0000	53.1714
419.9000	53.1211
419.8000	53.0714
419.7000	53.0214
419.6000	52.9715
419.5000	52.9233
419.4000	52.8744
419.3000	52.8248
419.2000	52.7696
419.1000	52.7191
419.0000	52.67
418.9000	52.617
418.8000	52.5597
418.7000	52.5013
418.6000	52.4395
418.5000	52.3717
418.4000	52.3039
418.3000	52.236
418.2000	52.1633
418.1000	52.0943
418.0000	52.0241
417.9000	51.9466
417.8000	51.8754
417.7000	51.7978
417.6000	51.7232
417.5000	51.646
417.4000	51.5642
417.3000	51.4837
417.2000	51.4039
417.1000	51.3227
417.0000	51.2415
416.9000	51.1625
416.8000	51.0891
416.7000	51.0106
416.6000	50.9352
416.5000	50.8567
416.4000	50.7752
416.3000	50.6984
416.2000	50.6211
416.1000	50.5458
416.0000	50.4688
415.9000	50.3895
415.8000	50.3153
415.7000	50.2424
415.6000	50.1665
415.5000	50.0949
415.4000	50.0244
415.3000	49.9517
415.2000	49.8744
415.1000	49.802
415.0000	49.7301
414.9000	49.6565
414.8000	49.5854
414.7000	49.5122
414.6000	49.4346
414.5000	49.3573
414.4000	49.2797
414.3000	49.2038
414.2000	49.126
414.1000	49.0471
414.0000	48.9723
413.9000	48.8896
413.8000	48.809
413.7000	48.7256
413.6000	48.6448
413.5000	48.5604
413.4000	48.4792
413.3000	48.3962
413.2000	48.3127
413.1000	48.2281
413.0000	48.146
412.9000	48.0641
412.8000	47.9823
412.7000	47.9021
412.6000	47.8208
412.5000	47.7411
412.4000	47.6594
412.3000	47.5845
412.2000	47.507
412.1000	47.4342
412.0000	47.3586
411.9000	47.2868
411.8000	47.213
411.7000	47.1436
411.6000	47.0723
411.5000	47.0044
411.4000	46.9374
411.3000	46.8695
411.2000	46.7998
411.1000	46.7338
411.0000	46.6679
410.9000	46.6015
410.8000	46.5343
410.7000	46.4676
410.6000	46.3995
410.5000	46.3323
410.4000	46.2638
410.3000	46.1963
410.2000	46.1281
410.1000	46.0566
410.0000	45.9867
409.9000	45.9163
409.8000	45.8447
409.7000	45.7752
409.6000	45.709
409.5000	45.6382
409.4000	45.5672
409.3000	45.4983
409.2000	45.4288
409.1000	45.3562
409.0000	45.29
408.9000	45.2189
408.8000	45.1526
408.7000	45.0842
408.6000	45.0194
408.5000	44.9549
408.4000	44.8881
408.3000	44.8278
408.2000	44.7656
408.1000	44.7014
408.0000	44.6401
407.9000	44.5798
407.8000	44.5192
407.7000	44.4572
407.6000	44.399
407.5000	44.3438
407.4000	44.2812
407.3000	44.2289
407.2000	44.1711
407.1000	44.1139
407.0000	44.0532
406.9000	43.9964
406.8000	43.9411
406.7000	43.8817
406.6000	43.8229
406.5000	43.7687
406.4000	43.7088
406.3000	43.6501
406.2000	43.5923
406.1000	43.5355
406.0000	43.4784
405.9000	43.4226
405.8000	43.3698
405.7000	43.3109
405.6000	43.2534
405.5000	43.1993
405.4000	43.1424
405.3000	43.0862
405.2000	43.0296
405.1000	42.9743
405.0000	42.9202
404.9000	42.8656
404.8000	42.8119
404.7000	42.7541
404.6000	42.7019
404.5000	42.6492
404.4000	42.591
404.3000	42.5364
404.2000	42.4803
404.1000	42.4235
404.0000	42.3698
403.9000	42.3138
403.8000	42.2603
403.7000	42.2035
403.6000	42.1498
403.5000	42.0936
403.4000	42.0358
403.3000	41.9777
403.2000	41.9236
403.1000	41.8696
403.0000	41.8115
402.9000	41.7512
402.8000	41.6964
402.7000	41.6352
402.6000	41.5769
402.5000	41.516
402.4000	41.4551
402.3000	41.3931
402.2000	41.3328
402.1000	41.2717
402.0000	41.2087
401.9000	41.1473
401.8000	41.0868
401.7000	41.0234
401.6000	40.9571
401.5000	40.8948
401.4000	40.8295
401.3000	40.7672
401.2000	40.7025
401.1000	40.6345
401.0000	40.5656
400.9000	40.5002
400.8000	40.4289
400.7000	40.3603
400.6000	40.2894
400.5000	40.2188
400.4000	40.1493
400.3000	40.074
400.2000	40.0017
400.1000	39.9286
400.0000	39.8536
399.9000	39.7741
399.8000	39.7001
399.7000	39.6233
399.6000	39.5436
399.5000	39.4648
399.4000	39.3867
399.3000	39.3092
399.2000	39.2349
399.1000	39.1557
399.0000	39.0791
398.9000	38.9955
398.8000	38.9142
398.7000	38.8334
398.6000	38.7498
398.5000	38.6643
398.4000	38.5811
398.3000	38.4983
398.2000	38.4123
398.1000	38.3252
398.0000	38.2386
397.9000	38.1562
397.8000	38.0681
397.7000	37.9764
397.6000	37.8846
397.5000	37.7947
397.4000	37.7015
397.3000	37.6165
397.2000	37.5241
397.1000	37.4338
397.0000	37.3422
396.9000	37.2532
396.8000	37.159
396.7000	37.0679
396.6000	36.9732
396.5000	36.8792
396.4000	36.7857
396.3000	36.6887
396.2000	36.5928
396.1000	36.5006
396.0000	36.4078
395.9000	36.3113
395.8000	36.212
395.7000	36.113
395.6000	36.0171
395.5000	35.9182
395.4000	35.8193
395.3000	35.7189
395.2000	35.6216
395.1000	35.5198
395.0000	35.4201
394.9000	35.3206
394.8000	35.2195
394.7000	35.1171
394.6000	35.0165
394.5000	34.9108
394.4000	34.8076
394.3000	34.7036
394.2000	34.603
394.1000	34.4986
394.0000	34.3947
393.9000	34.292
393.8000	34.1885
393.7000	34.0862
393.6000	33.9831
393.5000	33.8821
393.4000	33.7823
393.3000	33.6791
393.2000	33.5796
393.1000	33.4792
393.0000	33.3774
392.9000	33.2756
392.8000	33.1742
392.7000	33.0722
392.6000	32.9717
392.5000	32.8729
392.4000	32.7711
392.3000	32.6704
392.2000	32.5707
392.1000	32.4698
392.0000	32.3707
391.9000	32.2686
391.8000	32.1668
391.7000	32.0655
391.6000	31.9645
391.5000	31.8654
391.4000	31.7658
391.3000	31.6678
391.2000	31.5691
391.1000	31.4692
391.0000	31.3686
390.9000	31.269
390.8000	31.1707
390.7000	31.0707
390.6000	30.9709
390.5000	30.8705
390.4000	30.7708
390.3000	30.6739
390.2000	30.5768
390.1000	30.4809
390.0000	30.3831
389.9000	30.286
389.8000	30.1901
389.7000	30.0961
389.6000	29.9993
389.5000	29.9082
389.4000	29.8166
389.3000	29.7194
389.2000	29.6277
389.1000	29.5343
389.0000	29.4411
388.9000	29.3497
388.8000	29.2551
388.7000	29.163
388.6000	29.0691
388.5000	28.9751
388.4000	28.8822
388.3000	28.7895
388.2000	28.7005
388.1000	28.6065
388.0000	28.515
387.9000	28.4219
387.8000	28.3297
387.7000	28.2412
387.6000	28.1507
387.5000	28.0606
387.4000	27.9718
387.3000	27.8816
387.2000	27.7936
387.1000	27.7051
387.0000	27.6165
386.9000	27.5302
386.8000	27.4432
386.7000	27.3555
386.6000	27.2647
386.5000	27.1797
386.4000	27.0912
386.3000	27.0042
386.2000	26.9183
386.1000	26.834
386.0000	26.7452
385.9000	26.6598
385.8000	26.5723
385.7000	26.4891
385.6000	26.4048
385.5000	26.3176
385.4000	26.2332
385.3000	26.1473
385.2000	26.0597
385.1000	25.973
385.0000	25.8871
384.9000	25.7996
384.8000	25.7133
384.7000	25.627
384.6000	25.5411
384.5000	25.4539
384.4000	25.3684
384.3000	25.2824
384.2000	25.1952
384.1000	25.1087
384.0000	25.0215
383.9000	24.937
383.8000	24.8479
383.7000	24.7603
383.6000	24.6734
383.5000	24.5884
383.4000	24.5024
383.3000	24.4156
383.2000	24.3291
383.1000	24.2426
383.0000	24.1546
382.9000	24.065
382.8000	23.9758
382.7000	23.8877
382.6000	23.8004
382.5000	23.7118
382.4000	23.6232
382.3000	23.5326
382.2000	23.4461
382.1000	23.3581
382.0000	23.2699
381.9000	23.1786
381.8000	23.0895
381.7000	23.0002
381.6000	22.9112
381.5000	22.8184
381.4000	22.7272
381.3000	22.6364
381.2000	22.5473
381.1000	22.4566
381.0000	22.3653
380.9000	22.2711
380.8000	22.1786
380.7000	22.085
380.6000	21.9907
380.5000	21.8961
380.4000	21.8013
380.3000	21.7082
380.2000	21.613
380.1000	21.5175
380.0000	21.4218
379.9000	21.3286
379.8000	21.2328
379.7000	21.139
379.6000	21.0416
379.5000	20.9449
379.4000	20.8479
379.3000	20.7492
379.2000	20.6512
379.1000	20.5542
379.0000	20.4551
378.9000	20.356
378.8000	20.2553
378.7000	20.1566
378.6000	20.0559
378.5000	19.9548
378.4000	19.8535
378.3000	19.7511
378.2000	19.6487
378.1000	19.5449
378.0000	19.4422
377.9000	19.337
377.8000	19.2328
377.7000	19.1297
377.6000	19.0256
377.5000	18.9195
377.4000	18.8144
377.3000	18.708
377.2000	18.6031
377.1000	18.4946
377.0000	18.3873
376.9000	18.2798
376.8000	18.1723
376.7000	18.0645
376.6000	17.9579
376.5000	17.8503
376.4000	17.743
376.3000	17.6337
376.2000	17.5233
376.1000	17.4137
376.0000	17.3025
375.9000	17.1909
375.8000	17.0781
375.7000	16.9654
375.6000	16.8516
375.5000	16.7361
375.4000	16.6202
375.3000	16.5048
375.2000	16.3879
375.1000	16.2696
375.0000	16.1499
374.9000	16.0283
374.8000	15.9052
374.7000	15.7818
374.6000	15.6593
374.5000	15.5342
374.4000	15.4069
374.3000	15.2801
374.2000	15.1521
374.1000	15.022
374.0000	14.8906
373.9000	14.7574
373.8000	14.6243
373.7000	14.4882
373.6000	14.3513
373.5000	14.2143
373.4000	14.0734
373.3000	13.9322
373.2000	13.7887
373.1000	13.6463
373.0000	13.501
372.9000	13.3542
372.8000	13.2068
372.7000	13.0586
372.6000	12.9074
372.5000	12.7564
372.4000	12.6034
372.3000	12.4511
372.2000	12.2963
372.1000	12.1395
372.0000	11.981
371.9000	11.821
371.8000	11.6595
371.7000	11.4976
371.6000	11.3343
371.5000	11.1687
371.4000	11.0004
371.3000	10.8344
371.2000	10.6658
371.1000	10.4947
371.0000	10.3237
370.9000	10.1525
370.8000	9.97913
370.7000	9.80265
370.6000	9.62786
370.5000	9.45337
370.4000	9.27621
370.3000	9.09681
370.2000	8.92035
370.1000	8.74191
370.0000	8.02364
369.9000	7.842
369.8000	7.66419
369.7000	7.48719
369.6000	7.30689
369.5000	7.1252
369.4000	6.94733
369.3000	6.7713
369.2000	6.59501
369.1000	6.41768
369.0000	6.24208
368.9000	6.06684
368.8000	5.89256
368.7000	5.71901
368.6000	5.54859
368.5000	5.37772
368.4000	5.20764
368.3000	5.04386
368.2000	4.88009
368.1000	4.71766
368.0000	4.557
367.9000	4.39921
367.8000	4.24331
367.7000	4.0897
367.6000	3.93793
367.5000	3.7905
367.4000	3.64463
367.3000	3.50155
367.2000	3.36159
367.1000	3.22563
367.0000	3.09037
366.9000	2.95914
366.8000	2.83138
366.7000	2.70636
366.6000	2.58516
366.5000	2.46548
366.4000	2.35033
366.3000	2.2389
366.2000	2.13031
366.1000	2.02496
366.0000	1.92369
365.9000	1.825
365.8000	1.7292
365.7000	1.63688
365.6000	1.54786
365.5000	1.46109
365.4000	1.37827
365.3000	1.2984
365.2000	1.22245
365.1000	1.14828
365.0000	1.07707
364.9000	1.00928
364.8000	0.945075
364.7000	0.882968
364.6000	0.823266
364.5000	0.767032
364.4000	0.713119
364.3000	0.6618
364.2000	0.613698
364.1000	0.567904
364.0000	0.524224
363.9000	0.483192
363.8000	0.444749
363.7000	0.408668
363.6000	0.374254
363.5000	0.342006
363.4000	0.312199
363.3000	0.284393
363.2000	0.258473
363.1000	0.234371
363.0000	0.212125
362.9000	0.191214
362.8000	0.172062
362.7000	0.154421
362.6000	0.138151
362.5000	0.123243
362.4000	0.10965
362.3000	0.0973771
362.2000	0.0860819
362.1000	0.0760151
362.0000	0.0668554
361.9000	0.0587178
361.8000	0.0513146
361.7000	0.0447705
361.6000	0.0388834
361.5000	0.0337309
361.4000	0.0290979
361.3000	0.0250316
361.2000	0.0214067
361.1000	0.0182941
361.0000	0.0155726
360.9000	0.0134181
360.8000	0.0115367
360.7000	0.00982762
360.6000	0.00836564
360.5000	0.00709923
360.4000	0.00600572
360.3000	0.00513596
360.2000	0.00443851
360.1000	0.00381494
360.0000	0.00327039
359.9000	0.00280997
359.8000	0.00254303
359.7000	0.00227638
359.6000	0.00210668
359.5000	0.00193718
359.4000	0.00179182
359.3000	0.00157388
359.2000	0.00142812
359.1000	0.00137951
359.0000	0.00125908
358.9000	0.00121101
358.8000	0.00113824
358.7000	0.00106516
358.6000	0.00101663
358.5000	0.000992484
358.4000	0.00101706
358.3000	0.000944425
358.2000	0.000993101
358.1000	0.00101713
358.0000	0.000944681
357.9000	0.000872471
357.8000	0.000824178
357.7000	0.000848064
357.6000	0.000896787
357.5000	0.000872995
357.4000	0.000896767
357.3000	0.000847947
357.2000	0.000872736
357.1000	0.00082418
357.0000	0.00075083
356.9000	0.000774742
356.8000	0.000725886
356.7000	0.000726379
356.6000	0.000629335
356.5000	0.000581046
356.4000	0.000605136
356.3000	0.000580789
356.2000	0.000580694
356.1000	0.000556457
356.0000	0.000483266
355.9000	0.000459023
355.8000	0.000532211
355.7000	0.000580997
355.6000	0.000532238
355.5000	0.000605787
355.4000	0.00063088
355.3000	0.000630855
355.2000	0.00065548
355.1000	0.000679701
355.0000	0.000655235
354.9000	0.000679465
354.8000	0.000703373
354.7000	0.000825293
354.6000	0.000752708
354.5000	0.000752958
354.4000	0.000728874
354.3000	0.000777159
354.2000	0.000703986
354.1000	0.000630926
354.0000	0.00063084
353.9000	0.000581897
353.8000	0.000508445
353.7000	0.000386477
353.6000	0.00033817
353.5000	0.000314071
353.4000	0.000314023
353.3000	0.000314271
353.2000	0.000265854
353.1000	0.000192785
353.0000	0.000241598
352.9000	0.000168357
352.8000	0.000167923
352.7000	0.000143438
352.6000	0.00019216
352.5000	0.00021711
352.4000	0.000266632
352.3000	0.000291279
352.2000	0.000291033
352.1000	0.000290975
352.0000	0.000339565
351.9000	0.000363764
351.8000	0.000315297
351.7000	0.000241828
351.6000	0.000266396
351.5000	0.000290213
351.4000	0.00029044
351.3000	0.000363941
351.2000	0.000437684
351.1000	0.000462097
351.0000	0.00046168
350.9000	0.000412494
350.8000	0.000387708
350.7000	0.000363114
350.6000	0.00038813
350.5000	0.000461106
350.4000	0.000412218
350.3000	0.000388116
350.2000	0.000388433
350.1000	0.000436861
350.0000	0.000387754
349.9000	0.000363831
349.8000	0.000364095
349.7000	0.000315659
349.6000	0.000242351
349.5000	0.000169241
349.4000	9.6295E-005
349.3000	0.00016952
349.2000	0.000193902
349.1000	0.000218443
349.0000	0.00026699
348.9000	0.000243023
348.8000	0.000218939
348.7000	0.000170536
348.6000	0.000218862
348.5000	0.000194917
348.4000	0.00024417
348.3000	0.000244106
348.2000	0.000219357
348.1000	0.000243067
348.0000	0.000291957
347.9000	0.00031635
347.8000	0.00038984
347.7000	0.000365473
347.6000	0.000340979
347.5000	0.000268175
347.4000	0.000292741
347.3000	0.000268065
347.2000	0.000340574
347.1000	0.0004133
347.0000	0.000364883
346.9000	0.000364874
346.8000	0.00029139
346.7000	0.000242511
346.6000	0.000266952
346.5000	0.000266784
346.4000	0.000266916
346.3000	0.000242802
346.2000	0.000193624
346.1000	0.000169166
346.0000	0.00016898
345.9000	0.000168559
345.8000	0.000119631
345.7000	0.000144478
345.6000	7.17569E-005
345.5000	2.27558E-005
345.4000	7.13196E-005
345.3000	4.67529E-005
345.2000	9.55685E-005
345.1000	0.000144172
345.0000	0.000168955
344.9000	0.000120479
344.8000	9.58201E-005
344.7000	9.5577E-005
344.6000	0.000120621
344.5000	0.000144995
344.4000	0.000145048
344.3000	0.000145144
344.2000	0.000120524
344.1000	0.000119869
344.0000	0.000119951
343.9000	0.000193356
343.8000	0.00024258
343.7000	0.000291291
343.6000	0.000315962
343.5000	0.000316116
343.4000	0.000217947
343.3000	0.000291021
343.2000	0.000290888
343.1000	0.000290741
343.0000	0.000290398
342.9000	0.000290482
342.8000	0.000290142
342.7000	0.000314093
342.6000	0.000363486
342.5000	0.000364339
342.4000	0.000388674
342.3000	0.000339988
342.2000	0.000290804
342.1000	0.000315162
342.0000	0.000290408
341.9000	0.000290419
341.8000	0.000339301
341.7000	0.000363919
341.6000	0.000339903
341.5000	0.000340146
341.4000	0.000340066
341.3000	0.000315897
341.2000	0.000316049
341.1000	0.000291775
341.0000	0.00029151
340.9000	0.000266829
340.8000	0.000266699
340.7000	0.000242232
340.6000	0.000242271
340.5000	0.000266684
340.4000	0.000267155
340.3000	0.000267548
340.2000	0.000291577
340.1000	0.000291267
340.0000	0.00601051
339.9000	0.00600958
339.8000	0.00605901
339.7000	0.00600968
339.6000	0.00603369
339.5000	0.00603303
339.4000	0.00603327
339.3000	0.00603199
339.2000	0.0060077
339.1000	0.00600548
339.0000	0.00610403
338.9000	0.0060314
338.8000	0.00603113
338.7000	0.00602997
338.6000	0.0061511
338.5000	0.0061997
338.4000	0.00617615
338.3000	0.0060045
338.2000	0.00590478
338.1000	0.00587978
338.0000	0.00575715
337.9000	0.00570752
337.8000	0.00575657
337.7000	0.00570786
337.6000	0.0057554
337.5000	0.00573075
337.4000	0.00565444
337.3000	0.00572725
337.2000	0.0057273
337.1000	0.00582737
337.0000	0.00580278
336.9000	0.00580177
336.8000	0.0058261
336.7000	0.00590059
336.6000	0.00587626
336.5000	0.00587595
336.4000	0.00592394
336.3000	0.00594919
336.2000	0.00587443
336.1000	0.00582454
336.0000	0.00577537
335.9000	0.00579743
335.8000	0.0058459
335.7000	0.00577282
335.6000	0.00569728
335.5000	0.00567064
335.4000	0.0055232
335.3000	0.00549898
335.2000	0.00549956
335.1000	0.00547429
335.0000	0.00552194
334.9000	0.00554661
334.8000	0.00547172
334.7000	0.00542176
334.6000	0.0054444
334.5000	0.00556706
334.4000	0.00554203
334.3000	0.00544418
334.2000	0.00534633
334.1000	0.00532101
334.0000	0.00529656
333.9000	0.00519888
333.8000	0.00527158
333.7000	0.00527059
333.6000	0.00524556
333.5000	0.0052948
333.4000	0.00522096
333.3000	0.00519511
333.2000	0.00529519
333.1000	0.0052719
333.0000	0.00527316
332.9000	0.00524703
332.8000	0.00526985
332.7000	0.00529507
332.6000	0.00529476
332.5000	0.00531892
332.4000	0.00539094
332.3000	0.00536443
332.2000	0.00538897
332.1000	0.00541416
332.0000	0.00538787
331.9000	0.00531195
331.8000	0.00540856
331.7000	0.00535998
331.6000	0.00538365
331.5000	0.00526022
331.4000	0.00525998
331.3000	0.00521147
331.2000	0.00511336
331.1000	0.00516171
331.0000	0.0051127
330.9000	0.00511161
330.8000	0.00508739
330.7000	0.00511263
330.6000	0.00501251
330.5000	0.00491356
330.4000	0.00484166
330.3000	0.00488997
330.2000	0.00481614
330.1000	0.00486378
330.0000	0.00486176
329.9000	0.00495764
329.8000	0.004884
329.7000	0.0048599
329.6000	0.00493459
329.5000	0.00490985
329.4000	0.00495779
329.3000	0.00503041
329.2000	0.00495755
329.1000	0.00493143
329.0000	0.00493279
328.9000	0.00495656
328.8000	0.0050272
328.7000	0.00500358
328.6000	0.00498037
328.5000	0.00493165
328.4000	0.00488197
328.3000	0.00485774
328.2000	0.00488098
328.1000	0.00480711
328.0000	0.00480671
327.9000	0.00475658
327.8000	0.0047074
327.7000	0.00461022
327.6000	0.00468125
327.5000	0.00465765
327.4000	0.00473072
327.3000	0.00477913
327.2000	0.00477994
327.1000	0.00473129
327.0000	0.00478014
326.9000	0.00475609
326.8000	0.00475655
326.7000	0.00478158
326.6000	0.00470862
326.5000	0.00473251
326.4000	0.00470736
326.3000	0.00475583
326.2000	0.00478078
326.1000	0.00475614
326.0000	0.00470768
325.9000	0.00475544
325.8000	0.00475346
325.7000	0.00467929
325.6000	0.00465389
325.5000	0.00470333
325.4000	0.00472548
325.3000	0.00474879
325.2000	0.0047479
325.1000	0.00477031
325.0000	0.00491542
324.9000	0.00498871
324.8000	0.00496451
324.7000	0.00491649
324.6000	0.00489014
324.5000	0.0048651
324.4000	0.00488972
324.3000	0.00491455
324.2000	0.00489084
324.1000	0.00489127
324.0000	0.00479477
323.9000	0.0047936
323.8000	0.00467162
323.7000	0.00469477
323.6000	0.00469595
323.5000	0.00467328
323.4000	0.00452813
323.3000	0.00442964
323.2000	0.00442709
323.1000	0.00445036
323.0000	0.00445251
322.9000	0.00445278
322.8000	0.00442803
322.7000	0.00435394
322.6000	0.00435296
322.5000	0.00442573
322.4000	0.00442448
322.3000	0.0043998
322.2000	0.0043772
322.1000	0.00440216
322.0000	0.00435231
321.9000	0.00437567
321.8000	0.00447254
321.7000	0.00442441
321.6000	0.00442556
321.5000	0.00442484
321.4000	0.00439859
321.3000	0.00439733
321.2000	0.00434895
321.1000	0.00432459
321.0000	0.0042765
320.9000	0.00417905
320.8000	0.00430161
320.7000	0.00422817
320.6000	0.00422684
320.5000	0.00412908
320.4000	0.00412931
320.3000	0.0041046
320.2000	0.00407857
320.1000	0.00410258
320.0000	0.00403041
319.9000	0.00393321
319.8000	0.00393177
319.7000	0.0039085
319.6000	0.00388382
319.5000	0.00393319
319.4000	0.00398206
319.3000	0.00407922
319.2000	0.00403014
319.1000	0.00405519
319.0000	0.00403079
318.9000	0.00403043
318.8000	0.00398081
318.7000	0.00398045
318.6000	0.00393289
318.5000	0.00395664
318.4000	0.00400409
318.3000	0.0039796
318.2000	0.00400574
318.1000	0.00395611
318.0000	0.00397952
317.9000	0.00390485
317.8000	0.00383171
317.7000	0.00375793
317.6000	0.00380721
317.5000	0.00383083
317.4000	0.00387849
317.3000	0.00385628
317.2000	0.00390464
317.1000	0.0038056
317.0000	0.00378215
316.9000	0.00378323
316.8000	0.00371121
316.7000	0.00376089
316.6000	0.00373483
316.5000	0.00383286
316.4000	0.00385782
316.3000	0.00383447
316.2000	0.00380857
316.1000	0.00373547
316.0000	0.00358947
315.9000	0.00358943
315.8000	0.00361546
315.7000	0.00358919
315.6000	0.00354222
315.5000	0.00361867
315.4000	0.00361684
315.3000	0.00359051
315.2000	0.00368682
315.1000	0.00371181
315.0000	0.00371419
314.9000	0.00364025
314.8000	0.00363894
314.7000	0.00368781
314.6000	0.00364043
314.5000	0.00364136
314.4000	0.00371363
314.3000	0.00368758
314.2000	0.00361227
314.1000	0.00358823
314.0000	0.00361251
313.9000	0.00353905
313.8000	0.00358712
313.7000	0.00365876
313.6000	0.0036105
313.5000	0.00351418
313.4000	0.00351363
313.3000	0.00351396
313.2000	0.00344251
313.1000	0.00348944
313.0000	0.00356012
312.9000	0.00360785
312.8000	0.00358374
312.7000	0.00353633
312.6000	0.00358402
312.5000	0.00365503
312.4000	0.00367908
312.3000	0.00375033
312.2000	0.00370187
312.1000	0.00363016
312.0000	0.00370158
311.9000	0.00379711
311.8000	0.00372619
311.7000	0.00372561
311.6000	0.00372552
311.5000	0.0036297
311.4000	0.00367714
311.3000	0.00367628
311.2000	0.00370018
311.1000	0.00367628
311.0000	0.00370022
310.9000	0.0036525
310.8000	0.00360421
310.7000	0.00355616
310.6000	0.00348486
310.5000	0.00348496
310.4000	0.00343751
310.3000	0.0034133
310.2000	0.00341199
310.1000	0.00338812
310.0000	0.00343555
309.9000	0.00350671
309.8000	0.00336442
309.7000	0.00334056
309.6000	0.00326832
309.5000	0.00333893
309.4000	0.0032191
309.3000	0.00321893
309.2000	0.00312357
309.1000	0.00312323
309.0000	0.00321837
308.9000	0.003218
308.8000	0.00319348
308.7000	0.00319305
308.6000	0.00314533
308.5000	0.00316871
308.4000	0.00312069
308.3000	0.0030496
308.2000	0.00304871
308.1000	0.00300066
308.0000	0.00302469
307.9000	0.00302465
307.8000	0.00311968
307.7000	0.003143
307.6000	0.00321419
307.5000	0.00321417
307.4000	0.00318966
307.3000	0.00311786
307.2000	0.00306995
307.1000	0.00304607
307.0000	0.00311716
306.9000	0.00314074
306.8000	0.00311682
306.7000	0.00306899
306.6000	0.00309287
306.5000	0.00311637
306.4000	0.00306779
306.3000	0.00304349
306.2000	0.00299649
306.1000	0.00299663
306.0000	0.00292487
305.9000	0.00287663
305.8000	0.00285319
305.7000	0.00292422
305.6000	0.00301916
305.5000	0.00304296
305.4000	0.0030431
305.3000	0.0029957
305.2000	0.00301887
305.1000	0.00304222
305.0000	0.00301799
304.9000	0.00306533
304.8000	0.00308947
304.7000	0.00306597
304.6000	0.00299383
304.5000	0.00299303
304.4000	0.00308754
304.3000	0.00313536
304.2000	0.0031114
304.1000	0.00308707
304.0000	0.00301569
303.9000	0.00296771
303.8000	0.00291972
303.7000	0.00287191
303.6000	0.00291895
303.5000	0.00291871
303.4000	0.00303749
303.3000	0.00296663
303.2000	0.00298998
303.1000	0.00298957
303.0000	0.00308466
302.9000	0.00306098
302.8000	0.00301326
302.7000	0.00303621
302.6000	0.00303576
302.5000	0.0031074
302.4000	0.00305988
302.3000	0.00301249
302.2000	0.00303548
302.1000	0.00308247
302.0000	0.00308251
301.9000	0.00313008
301.8000	0.00303482
301.7000	0.00303357
301.6000	0.00300963
301.5000	0.0029855
301.4000	0.00296125
301.3000	0.00296163
301.2000	0.00291439
301.1000	0.00289082
301.0000	0.00289035
300.9000	0.0028186
300.8000	0.00284236
300.7000	0.00293672
300.6000	0.00298455
300.5000	0.00300812
300.4000	0.00296071
300.3000	0.00288911
300.2000	0.00286538
300.1000	0.00281847
300.0000	0.00279439
299.9000	0.00279445
299.8000	0.00274699
299.7000	0.00267541
299.6000	0.00267509
299.5000	0.00258054
299.4000	0.00258075
299.3000	0.00255719
299.2000	0.00250954
299.1000	0.00241461
299.0000	0.00227215
298.9000	0.00220126
298.8000	0.00224853
298.7000	0.00227201
298.6000	0.00227175
298.5000	0.00236618
298.4000	0.00238972
298.3000	0.00238916
298.2000	0.00236537
298.1000	0.00248323
298.0000	0.00250706
297.9000	0.00257806
297.8000	0.00262519
297.7000	0.00260084
297.6000	0.0026246
297.5000	0.00262514
297.4000	0.00269615
297.3000	0.00267179
297.2000	0.00257703
297.1000	0.00260054
297.0000	0.00257688
296.9000	0.00252987
296.8000	0.00245888
296.7000	0.00241151
296.6000	0.00241155
296.5000	0.00236442
296.4000	0.00243545
296.3000	0.00236394
296.2000	0.0023163
296.1000	0.00231677
296.0000	0.00234008
295.9000	0.00236323
295.8000	0.00233904
295.7000	0.00233934
295.6000	0.00231612
295.5000	0.00219772
295.4000	0.00222063
295.3000	0.00214922
295.2000	0.00219624
295.1000	0.00222045
295.0000	0.00224371
294.9000	0.00219661
294.8000	0.00207828
294.7000	0.00207871
294.6000	0.00203105
294.5000	0.00198337
294.4000	0.00195965
294.3000	0.00198341
294.2000	0.00198448
294.1000	0.00196084
294.0000	0.00196018
293.9000	0.00205504
293.8000	0.00203132
293.7000	0.0020549
293.6000	0.00207876
293.5000	0.00207841
293.4000	0.00205512
293.3000	0.00200752
293.2000	0.00200705
293.1000	0.00200672
293.0000	0.00200723
292.9000	0.00207804
292.8000	0.00207782
292.7000	0.002054
292.6000	0.00207737
292.5000	0.00210101
292.4000	0.00214834
292.3000	0.0021243
292.2000	0.0021009
292.1000	0.0021244
292.0000	0.00207717
291.9000	0.00202998
291.8000	0.00200579
291.7000	0.00200578
291.6000	0.00198265
291.5000	0.00200613
291.4000	0.00200599
291.3000	0.00198248
291.2000	0.00193525
291.1000	0.00184112
291.0000	0.00172239
290.9000	0.00172224
290.8000	0.00165132
290.7000	0.00165213
290.6000	0.00162862
290.5000	0.00160481
290.4000	0.00162838
290.3000	0.00167576
290.2000	0.0016762
290.1000	0.00167584
290.0000	0.00172252
289.9000	0.00167544
289.8000	0.00169899
289.7000	0.0016044
289.6000	0.00160426
289.5000	0.00160365
289.4000	0.00165106
289.3000	0.0016038
289.2000	0.00165068
289.1000	0.00162637
289.0000	0.00167376
288.9000	0.00169768
288.8000	0.00165053
288.7000	0.00157965
288.6000	0.00155581
288.5000	0.00157978
288.4000	0.00153278
288.3000	0.00150907
288.2000	0.00148526
288.1000	0.00153272
288.0000	0.0015565
287.9000	0.00155666
287.8000	0.00155658
287.7000	0.00158001
287.6000	0.00153329
287.5000	0.00151011
287.4000	0.00146277
287.3000	0.00139173
287.2000	0.00141515
287.1000	0.00143851
287.0000	0.00150914
286.9000	0.00148528
286.8000	0.00146211
286.7000	0.00150976
286.6000	0.00146237
286.5000	0.00143854
286.4000	0.00146161
286.3000	0.00153228
286.2000	0.00160349
286.1000	0.00158016
286.0000	0.00158007
285.9000	0.00162722
285.8000	0.00169776
285.7000	0.00169764
285.6000	0.00172085
285.5000	0.00172092
285.4000	0.00165075
285.3000	0.00165094
285.2000	0.00172159
285.1000	0.0016974
285.0000	0.00172101
284.9000	0.00174442
284.8000	0.00167427
284.7000	0.00162736
284.6000	0.00150904
284.5000	0.00153246
284.4000	0.0015558
284.3000	0.00153185
284.2000	0.00148486
284.1000	0.00146138
284.0000	0.00143814
283.9000	0.0014379
283.8000	0.00146125
283.7000	0.00150834
283.6000	0.00146074
283.5000	0.00150799
283.4000	0.00153223
283.3000	0.00153228
283.2000	0.00155563
283.1000	0.00157898
283.0000	0.00167367
282.9000	0.00165008
282.8000	0.00164971
282.7000	0.00160233
282.6000	0.00162613
282.5000	0.00167333
282.4000	0.00167289
282.3000	0.00169687
282.2000	0.00167316
282.1000	0.00157859
282.0000	0.00153139
281.9000	0.00148435
281.8000	0.00143627
281.7000	0.00148364
281.6000	0.00143689
281.5000	0.00136597
281.4000	0.0013181
281.3000	0.00129432
281.2000	0.00127142
281.1000	0.00129498
281.0000	0.00117656
280.9000	0.00117653
280.8000	0.00112975
280.7000	0.0010586
280.6000	0.00108203
280.5000	0.00112926
280.4000	0.00117643
280.3000	0.00112885
280.2000	0.00110578
280.1000	0.00105852
280.0000	0.00105802
279.9000	0.00108159
279.8000	0.00112902
279.7000	0.00115303
279.6000	0.00112903
279.5000	0.00110535
279.4000	0.00122326
279.3000	0.00124659
279.2000	0.00126993
279.1000	0.00134057
279.0000	0.00131715
278.9000	0.00129368
278.8000	0.00126984
278.7000	0.00134094
278.6000	0.00141127
278.5000	0.00145827
278.4000	0.00145855
278.3000	0.00150583
278.2000	0.00145845
278.1000	0.00143456
278.0000	0.00141095
277.9000	0.0014582
277.8000	0.0014112
277.7000	0.0013407
277.6000	0.00134051
277.5000	0.00129297
277.4000	0.00131586
277.3000	0.00129247
277.2000	0.00126967
277.1000	0.00122254
277.0000	0.00115171
276.9000	0.00108087
276.8000	0.00108055
276.7000	0.000986277
276.6000	0.00103352
276.5000	0.00105737
276.4000	0.00105718
276.3000	0.00103325
276.2000	0.00103331
276.1000	0.00108055
276.0000	0.00103374
275.9000	0.00103415
275.8000	0.00103458
275.7000	0.00101047
275.6000	0.00108022
275.5000	0.0011036
275.4000	0.00110398
275.3000	0.00108065
275.2000	0.00110412
275.1000	0.00117441
275.0000	0.00117405
274.9000	0.00119739
274.8000	0.00115015
274.7000	0.00115019
274.6000	0.00119707
274.5000	0.00117356
274.4000	0.00119733
274.3000	0.00122099
274.2000	0.00117376
274.1000	0.00122067
274.0000	0.00117355
273.9000	0.00124378
273.8000	0.00131445
273.7000	0.00131435
273.6000	0.00131438
273.5000	0.00129081
273.4000	0.00124352
273.3000	0.00121934
273.2000	0.00126694
273.1000	0.00126722
273.0000	0.00121972
272.9000	0.00124262
272.8000	0.00126581
272.7000	0.00124232
272.6000	0.00126584
272.5000	0.00128971
272.4000	0.0012902
272.3000	0.00117298
272.2000	0.00110227
272.1000	0.00110182
272.0000	0.00110144
271.9000	0.00110135
271.8000	0.00107829
271.7000	0.00105516
271.6000	0.00112549
271.5000	0.0011255
271.4000	0.00112536
271.3000	0.00110219
271.2000	0.00105456
271.1000	0.00110109
271.0000	0.00114778
270.9000	0.0011245
270.8000	0.00114812
270.7000	0.00117116
270.6000	0.0012175
270.5000	0.00124104
270.4000	0.00124152
270.3000	0.00124198
270.2000	0.00126486
270.1000	0.00128782
270.0000	0.00121752
269.9000	0.00114697
269.8000	0.00110029
269.7000	0.00105267
269.6000	0.00105325
269.5000	0.000983109
269.4000	0.000936469
269.3000	0.000912144
269.2000	0.000888199
269.1000	0.000888088
269.0000	0.000841692
268.9000	0.000841836
268.8000	0.000841647
268.7000	0.000864878
268.6000	0.000842074
268.5000	0.000818752
268.4000	0.000842225
268.3000	0.000912406
268.2000	0.0010303
268.1000	0.00105433
268.0000	0.00105409
267.9000	0.00105397
267.8000	0.00110125
267.7000	0.00110201
267.6000	0.00110176
267.5000	0.00107834
267.4000	0.00112485
267.3000	0.00112485
267.2000	0.00110189
267.1000	0.00107855
267.0000	0.00110186
266.9000	0.0011718
266.8000	0.00119518
266.7000	0.00117193
266.6000	0.00107804
266.5000	0.00105454
266.4000	0.00105422
266.3000	0.0010774
266.2000	0.00102993
266.1000	0.00105307
266.0000	0.000982591
265.9000	0.00100624
265.8000	0.000959786
265.7000	0.000959919
265.6000	0.000982852
265.5000	0.00098267
265.4000	0.000958919
265.3000	0.000912793
265.2000	0.000842213
265.1000	0.000889028
265.0000	0.000912429
264.9000	0.000935703
264.8000	0.000959592
264.7000	0.000960003
264.6000	0.000936709
264.5000	0.000936957
264.4000	0.000984198
264.3000	0.000960831
264.2000	0.00100749
264.1000	0.00107812
264.0000	0.00103091
263.9000	0.00107806
263.8000	0.00112521
263.7000	0.0011486
263.6000	0.00114829
263.5000	0.00105433
263.4000	0.0010784
263.3000	0.0011257
263.2000	0.00110219
263.1000	0.00110203
263.0000	0.00110153
262.9000	0.00105444
262.8000	0.00110157
262.7000	0.00110195
262.6000	0.00105517
262.5000	0.000960958
262.4000	0.00096062
262.3000	0.00091307
262.2000	0.00086639
262.1000	0.000866804
262.0000	0.000914153
261.9000	0.000937488
261.8000	0.00091302
261.7000	0.000888652
261.6000	0.000959182
261.5000	0.000959756
261.4000	0.000960306
261.3000	0.00100741
261.2000	0.000983407
261.1000	0.00100623
261.0000	0.00100626
260.9000	0.00105366
260.8000	0.00105456
260.7000	0.00103144
260.6000	0.00110127
260.5000	0.00107721
260.4000	0.0011009
260.3000	0.00112479
260.2000	0.00112492
260.1000	0.00117264
260.0000	0.00112576
259.9000	0.00110191
259.8000	0.00114881
259.7000	0.00119567
259.6000	0.00124304
259.5000	0.00119637
259.4000	0.00119665
259.3000	0.00114932
259.2000	0.00119614
259.1000	0.00124272
259.0000	0.00117259
258.9000	0.00121973
258.8000	0.0012198
258.7000	0.00124325
258.6000	0.0012671
258.5000	0.00124354
258.4000	0.00124326
258.3000	0.00133747
258.2000	0.00126691
258.1000	0.00119643
258.0000	0.00110276
257.9000	0.00117341
257.8000	0.00119646
257.7000	0.00121978
257.6000	0.00121909
257.5000	0.00119604
257.4000	0.00124341
257.3000	0.00117324
257.2000	0.00112607
257.1000	0.00107851
257.0000	0.00105469
256.9000	0.00107843
256.8000	0.00107877
256.7000	0.000984476
256.6000	0.00103125
256.5000	0.00110183
256.4000	0.00114861
256.3000	0.00121923
256.2000	0.00119612
256.1000	0.00114966
256.0000	0.00112675
255.9000	0.00110342
255.8000	0.00112686
255.7000	0.0011501
255.6000	0.00119696
255.5000	0.00124423
255.4000	0.0012211
255.3000	0.00117376
255.2000	0.00117395
255.1000	0.00119755
255.0000	0.00119789
254.9000	0.00112741
254.8000	0.00110333
254.7000	0.00100896
254.6000	0.00100906
254.5000	0.00103243
254.4000	0.00105604
254.3000	0.0010561
254.2000	0.00103221
254.1000	0.00103257
254.0000	0.000962567
253.9000	0.000963225
253.8000	0.000986483
253.7000	0.00098659
253.6000	0.00098646
253.5000	0.000986292
253.4000	0.000939412
253.3000	0.000963164
253.2000	0.000963844
253.1000	0.000963971
253.0000	0.00098728
252.9000	0.00103418
252.8000	0.00105795
252.7000	0.00108178
252.6000	0.00101144
252.5000	0.00101093
252.4000	0.00103393
252.3000	0.000962599
252.2000	0.000939219
252.1000	0.000963084
252.0000	0.000963077
251.9000	0.000939902
251.8000	0.000986917
251.7000	0.000963153
251.6000	0.000986276
251.5000	0.00100992
251.4000	0.00100945
251.3000	0.000986174
251.2000	0.00096261
251.1000	0.000915253
251.0000	0.00100982
250.9000	0.00101018
250.8000	0.00103362
250.7000	0.00110418
250.6000	0.00112802
250.5000	0.00115173
250.4000	0.00115176
250.3000	0.00112811
250.2000	0.00115126
250.1000	0.00119834
250.0000	0.00115144
