TITLE	13.5_NP_0
DATA TYPE	ULTRAVIOLET SPECTRUM
ORIGIN	JASCO
OWNER	
DATE	21/05/03
TIME	15:28:57
SPECTROMETER/DATA SYSTEM	
RESOLUTION	
DELTAX	-0.1
XUNITS	NANOMETERS
YUNITS	TRANSMITTANCE
FIRSTX	  850.0000
LASTX	  250.0000
NPOINTS	    6001
FIRSTY	    83.37142
MAXY	    84.85438
MINY	    -0.00132
XYDATA
850.0000	83.3714
849.9000	83.3824
849.8000	83.3881
849.7000	83.3911
849.6000	83.3942
849.5000	83.3825
849.4000	83.3683
849.3000	83.3581
849.2000	83.3452
849.1000	83.3249
849.0000	83.3138
848.9000	83.2834
848.8000	83.2362
848.7000	83.1913
848.6000	83.1522
848.5000	83.0974
848.4000	83.046
848.3000	82.9838
848.2000	82.9243
848.1000	82.86
848.0000	82.7982
847.9000	82.7357
847.8000	82.6708
847.7000	82.603
847.6000	82.5143
847.5000	82.4302
847.4000	82.3404
847.3000	82.259
847.2000	82.1784
847.1000	82.1004
847.0000	82.0054
846.9000	81.905
846.8000	81.8078
846.7000	81.7107
846.6000	81.6083
846.5000	81.5079
846.4000	81.3949
846.3000	81.2844
846.2000	81.1815
846.1000	81.0513
846.0000	80.9425
845.9000	80.8227
845.8000	80.6948
845.7000	80.5701
845.6000	80.4369
845.5000	80.3076
845.4000	80.1775
845.3000	80.0493
845.2000	79.913
845.1000	79.7734
845.0000	79.6347
844.9000	79.4948
844.8000	79.3606
844.7000	79.2195
844.6000	79.0721
844.5000	78.9373
844.4000	78.7927
844.3000	78.6534
844.2000	78.5153
844.1000	78.3738
844.0000	78.2338
843.9000	78.0915
843.8000	77.9592
843.7000	77.822
843.6000	77.6797
843.5000	77.5418
843.4000	77.4143
843.3000	77.2793
843.2000	77.146
843.1000	77.0163
843.0000	76.8857
842.9000	76.7552
842.8000	76.6309
842.7000	76.505
842.6000	76.3865
842.5000	76.2642
842.4000	76.1464
842.3000	76.0269
842.2000	75.9067
842.1000	75.7959
842.0000	75.6929
841.9000	75.5863
841.8000	75.48
841.7000	75.3754
841.6000	75.2722
841.5000	75.1679
841.4000	75.0704
841.3000	74.976
841.2000	74.8805
841.1000	74.7902
841.0000	74.7006
840.9000	74.6179
840.8000	74.5352
840.7000	74.4596
840.6000	74.3888
840.5000	74.3103
840.4000	74.2409
840.3000	74.1707
840.2000	74.1038
840.1000	74.0371
840.0000	73.9708
839.9000	73.9207
839.8000	73.8603
839.7000	73.8069
839.6000	73.7619
839.5000	73.7166
839.4000	73.6724
839.3000	73.6281
839.2000	73.5882
839.1000	73.5558
839.0000	73.5278
838.9000	73.4982
838.8000	73.4654
838.7000	73.4509
838.6000	73.4354
838.5000	73.4284
838.4000	73.425
838.3000	73.4144
838.2000	73.4135
838.1000	73.4162
838.0000	73.4168
837.9000	73.4211
837.8000	73.4298
837.7000	73.4514
837.6000	73.485
837.5000	73.5138
837.4000	73.5362
837.3000	73.5754
837.2000	73.6146
837.1000	73.6563
837.0000	73.7011
836.9000	73.7471
836.8000	73.8007
836.7000	73.8576
836.6000	73.9161
836.5000	73.9797
836.4000	74.041
836.3000	74.117
836.2000	74.1913
836.1000	74.2727
836.0000	74.3456
835.9000	74.4267
835.8000	74.5182
835.7000	74.6036
835.6000	74.6889
835.5000	74.7824
835.4000	74.8769
835.3000	74.9795
835.2000	75.0791
835.1000	75.1893
835.0000	75.3046
834.9000	75.4181
834.8000	75.5369
834.7000	75.6462
834.6000	75.7714
834.5000	75.8894
834.4000	76.0098
834.3000	76.1288
834.2000	76.2458
834.1000	76.3731
834.0000	76.517
833.9000	76.651
833.8000	76.7755
833.7000	76.9079
833.6000	77.0452
833.5000	77.1756
833.4000	77.3099
833.3000	77.4459
833.2000	77.592
833.1000	77.7336
833.0000	77.8757
832.9000	78.0057
832.8000	78.1506
832.7000	78.2972
832.6000	78.4413
832.5000	78.589
832.4000	78.7275
832.3000	78.8694
832.2000	79.028
832.1000	79.1727
832.0000	79.3114
831.9000	79.4577
831.8000	79.6049
831.7000	79.7491
831.6000	79.8878
831.5000	80.0316
831.4000	80.1725
831.3000	80.3202
831.2000	80.455
831.1000	80.5876
831.0000	80.7323
830.9000	80.8716
830.8000	81.0091
830.7000	81.1492
830.6000	81.276
830.5000	81.4074
830.4000	81.5426
830.3000	81.6676
830.2000	81.7915
830.1000	81.9172
830.0000	82.0334
829.9000	82.1534
829.8000	82.2706
829.7000	82.3862
829.6000	82.503
829.5000	82.6138
829.4000	82.7254
829.3000	82.8274
829.2000	82.9254
829.1000	83.0283
829.0000	83.1314
828.9000	83.227
828.8000	83.3149
828.7000	83.4021
828.6000	83.4824
828.5000	83.5672
828.4000	83.6425
828.3000	83.7089
828.2000	83.7767
828.1000	83.8355
828.0000	83.9002
827.9000	83.9586
827.8000	84.0064
827.7000	84.0596
827.6000	84.1022
827.5000	84.1277
827.4000	84.1522
827.3000	84.1846
827.2000	84.2157
827.1000	84.2427
827.0000	84.266
826.9000	84.2704
826.8000	84.2843
826.7000	84.2965
826.6000	84.2971
826.5000	84.3017
826.4000	84.2903
826.3000	84.2788
826.2000	84.2524
826.1000	84.2254
826.0000	84.2045
825.9000	84.1785
825.8000	84.1532
825.7000	84.1076
825.6000	84.0595
825.5000	84.0061
825.4000	83.9566
825.3000	83.9126
825.2000	83.86
825.1000	83.8044
825.0000	83.7424
824.9000	83.6726
824.8000	83.6006
824.7000	83.5228
824.6000	83.4561
824.5000	83.3733
824.4000	83.2863
824.3000	83.2023
824.2000	83.1112
824.1000	83.023
824.0000	82.9308
823.9000	82.8416
823.8000	82.7403
823.7000	82.6277
823.6000	82.5205
823.5000	82.4026
823.4000	82.2873
823.3000	82.1802
823.2000	82.0668
823.1000	81.9513
823.0000	81.8307
822.9000	81.7087
822.8000	81.5919
822.7000	81.4687
822.6000	81.3477
822.5000	81.2261
822.4000	81.1034
822.3000	80.9767
822.2000	80.8483
822.1000	80.7242
822.0000	80.595
821.9000	80.4709
821.8000	80.3432
821.7000	80.216
821.6000	80.0857
821.5000	79.9611
821.4000	79.8295
821.3000	79.7094
821.2000	79.584
821.1000	79.4645
821.0000	79.3354
820.9000	79.2056
820.8000	79.0776
820.7000	78.9577
820.6000	78.83
820.5000	78.7064
820.4000	78.5815
820.3000	78.4569
820.2000	78.3402
820.1000	78.2176
820.0000	78.1059
819.9000	77.9909
819.8000	77.8749
819.7000	77.7614
819.6000	77.6449
819.5000	77.5262
819.4000	77.418
819.3000	77.3132
819.2000	77.2147
819.1000	77.101
819.0000	77.0106
818.9000	76.9267
818.8000	76.8455
818.7000	76.7588
818.6000	76.6727
818.5000	76.5933
818.4000	76.5153
818.3000	76.4384
818.2000	76.3687
818.1000	76.2944
818.0000	76.2246
817.9000	76.1626
817.8000	76.1047
817.7000	76.0493
817.6000	76.0012
817.5000	75.9611
817.4000	75.9149
817.3000	75.8626
817.2000	75.817
817.1000	75.7904
817.0000	75.7631
816.9000	75.7423
816.8000	75.7159
816.7000	75.6984
816.6000	75.6843
816.5000	75.6841
816.4000	75.681
816.3000	75.6792
816.2000	75.6795
816.1000	75.6894
816.0000	75.6958
815.9000	75.707
815.8000	75.7226
815.7000	75.749
815.6000	75.7737
815.5000	75.8001
815.4000	75.8264
815.3000	75.8464
815.2000	75.8853
815.1000	75.9263
815.0000	75.9704
814.9000	76.0135
814.8000	76.071
814.7000	76.1306
814.6000	76.1844
814.5000	76.2434
814.4000	76.3097
814.3000	76.3803
814.2000	76.4547
814.1000	76.5218
814.0000	76.6014
813.9000	76.6767
813.8000	76.7623
813.7000	76.854
813.6000	76.9391
813.5000	77.0395
813.4000	77.1348
813.3000	77.2316
813.2000	77.3261
813.1000	77.4256
813.0000	77.5323
812.9000	77.6433
812.8000	77.7485
812.7000	77.8587
812.6000	77.9654
812.5000	78.0837
812.4000	78.2008
812.3000	78.3162
812.2000	78.436
812.1000	78.5602
812.0000	78.6922
811.9000	78.8091
811.8000	78.9349
811.7000	79.0623
811.6000	79.1953
811.5000	79.3315
811.4000	79.468
811.3000	79.6012
811.2000	79.7362
811.1000	79.87
811.0000	80.0124
810.9000	80.1443
810.8000	80.2743
810.7000	80.4142
810.6000	80.5555
810.5000	80.6849
810.4000	80.8117
810.3000	80.9413
810.2000	81.0755
810.1000	81.2126
810.0000	81.3478
809.9000	81.4725
809.8000	81.606
809.7000	81.7331
809.6000	81.8613
809.5000	81.992
809.4000	82.1205
809.3000	82.2539
809.2000	82.3851
809.1000	82.5171
809.0000	82.6339
808.9000	82.7582
808.8000	82.8757
808.7000	82.9964
808.6000	83.1129
808.5000	83.2177
808.4000	83.3238
808.3000	83.4298
808.2000	83.53
808.1000	83.6294
808.0000	83.7286
807.9000	83.8154
807.8000	83.8987
807.7000	83.9838
807.6000	84.0639
807.5000	84.1371
807.4000	84.2155
807.3000	84.2908
807.2000	84.3631
807.1000	84.4224
807.0000	84.4881
806.9000	84.5504
806.8000	84.598
806.7000	84.6461
806.6000	84.691
806.5000	84.726
806.4000	84.7516
806.3000	84.7844
806.2000	84.8064
806.1000	84.8284
806.0000	84.8466
805.9000	84.8544
805.8000	84.8524
805.7000	84.8522
805.6000	84.8455
805.5000	84.8488
805.4000	84.8336
805.3000	84.8155
805.2000	84.796
805.1000	84.7733
805.0000	84.747
804.9000	84.7178
804.8000	84.6869
804.7000	84.6458
804.6000	84.6004
804.5000	84.5457
804.4000	84.4914
804.3000	84.4384
804.2000	84.3827
804.1000	84.3113
804.0000	84.237
803.9000	84.1601
803.8000	84.0752
803.7000	84.0018
803.6000	83.919
803.5000	83.8261
803.4000	83.7315
803.3000	83.6344
803.2000	83.5353
803.1000	83.4341
803.0000	83.3312
802.9000	83.2241
802.8000	83.1147
802.7000	82.9971
802.6000	82.8822
802.5000	82.7651
802.4000	82.6519
802.3000	82.531
802.2000	82.4156
802.1000	82.286
802.0000	82.1628
801.9000	82.0369
801.8000	81.9056
801.7000	81.778
801.6000	81.6475
801.5000	81.5205
801.4000	81.3902
801.3000	81.2626
801.2000	81.126
801.1000	80.998
801.0000	80.8672
800.9000	80.7364
800.8000	80.6042
800.7000	80.4733
800.6000	80.3326
800.5000	80.1988
800.4000	80.057
800.3000	79.9174
800.2000	79.7788
800.1000	79.6365
800.0000	79.5
799.9000	79.3581
799.8000	79.222
799.7000	79.0834
799.6000	78.959
799.5000	78.8233
799.4000	78.6885
799.3000	78.5685
799.2000	78.4402
799.1000	78.3109
799.0000	78.1918
798.9000	78.0676
798.8000	77.9554
798.7000	77.8437
798.6000	77.7403
798.5000	77.6316
798.4000	77.5235
798.3000	77.4219
798.2000	77.3205
798.1000	77.2236
798.0000	77.1212
797.9000	77.036
797.8000	76.9471
797.7000	76.8581
797.6000	76.7776
797.5000	76.7002
797.4000	76.6246
797.3000	76.5624
797.2000	76.5032
797.1000	76.449
797.0000	76.3833
796.9000	76.3361
796.8000	76.2885
796.7000	76.2429
796.6000	76.206
796.5000	76.171
796.4000	76.138
796.3000	76.1014
796.2000	76.0752
796.1000	76.0524
796.0000	76.0355
795.9000	76.0233
795.8000	76.0122
795.7000	76.0019
795.6000	75.9946
795.5000	75.9905
795.4000	76.0012
795.3000	76.003
795.2000	76.0187
795.1000	76.0369
795.0000	76.0612
794.9000	76.0802
794.8000	76.1099
794.7000	76.148
794.6000	76.1887
794.5000	76.2329
794.4000	76.2762
794.3000	76.319
794.2000	76.3733
794.1000	76.4286
794.0000	76.4894
793.9000	76.5599
793.8000	76.6274
793.7000	76.7004
793.6000	76.7696
793.5000	76.8488
793.4000	76.9291
793.3000	77.017
793.2000	77.1084
793.1000	77.2012
793.0000	77.2905
792.9000	77.3813
792.8000	77.4812
792.7000	77.5859
792.6000	77.6917
792.5000	77.7939
792.4000	77.9018
792.3000	78.0021
792.2000	78.1097
792.1000	78.2273
792.0000	78.3499
791.9000	78.4699
791.8000	78.5899
791.7000	78.7165
791.6000	78.8371
791.5000	78.954
791.4000	79.0841
791.3000	79.2145
791.2000	79.338
791.1000	79.4707
791.0000	79.6029
790.9000	79.7366
790.8000	79.8701
790.7000	80.0108
790.6000	80.1427
790.5000	80.2773
790.4000	80.4107
790.3000	80.5387
790.2000	80.669
790.1000	80.7978
790.0000	80.9312
789.9000	81.0667
789.8000	81.1997
789.7000	81.3276
789.6000	81.4634
789.5000	81.5904
789.4000	81.7154
789.3000	81.8373
789.2000	81.9543
789.1000	82.0694
789.0000	82.1874
788.9000	82.3036
788.8000	82.4137
788.7000	82.5175
788.6000	82.6215
788.5000	82.7198
788.4000	82.8181
788.3000	82.9167
788.2000	83.0026
788.1000	83.094
788.0000	83.1805
787.9000	83.2605
787.8000	83.3354
787.7000	83.4086
787.6000	83.4769
787.5000	83.543
787.4000	83.6042
787.3000	83.6581
787.2000	83.7144
787.1000	83.7731
787.0000	83.8205
786.9000	83.8658
786.8000	83.8984
786.7000	83.9271
786.6000	83.9562
786.5000	83.9782
786.4000	83.9926
786.3000	84.0038
786.2000	84.0115
786.1000	84.0137
786.0000	84.0137
785.9000	84.0099
785.8000	84.0012
785.7000	83.9867
785.6000	83.9678
785.5000	83.9418
785.4000	83.9031
785.3000	83.8651
785.2000	83.8294
785.1000	83.7844
785.0000	83.7344
784.9000	83.6771
784.8000	83.6158
784.7000	83.5553
784.6000	83.4868
784.5000	83.4177
784.4000	83.3423
784.3000	83.2568
784.2000	83.1735
784.1000	83.0792
784.0000	82.9829
783.9000	82.888
783.8000	82.7865
783.7000	82.6787
783.6000	82.5682
783.5000	82.4558
783.4000	82.3443
783.3000	82.2247
783.2000	82.099
783.1000	81.9694
783.0000	81.8417
782.9000	81.7058
782.8000	81.5708
782.7000	81.4348
782.6000	81.2934
782.5000	81.1559
782.4000	81.0118
782.3000	80.8636
782.2000	80.7224
782.1000	80.578
782.0000	80.4278
781.9000	80.2789
781.8000	80.1286
781.7000	79.9788
781.6000	79.8321
781.5000	79.6795
781.4000	79.5234
781.3000	79.373
781.2000	79.2165
781.1000	79.0619
781.0000	78.9032
780.9000	78.7444
780.8000	78.5926
780.7000	78.4408
780.6000	78.2865
780.5000	78.1352
780.4000	77.9845
780.3000	77.8304
780.2000	77.6735
780.1000	77.5235
780.0000	77.3684
779.9000	77.2241
779.8000	77.0803
779.7000	76.9344
779.6000	76.7907
779.5000	76.6512
779.4000	76.5193
779.3000	76.3831
779.2000	76.2438
779.1000	76.1172
779.0000	75.9978
778.9000	75.8731
778.8000	75.7485
778.7000	75.6313
778.6000	75.5189
778.5000	75.4056
778.4000	75.3046
778.3000	75.2003
778.2000	75.1017
778.1000	75.0113
778.0000	74.9224
777.9000	74.8355
777.8000	74.7499
777.7000	74.6755
777.6000	74.599
777.5000	74.521
777.4000	74.4463
777.3000	74.3797
777.2000	74.3229
777.1000	74.2683
777.0000	74.2167
776.9000	74.1702
776.8000	74.131
776.7000	74.0923
776.6000	74.0622
776.5000	74.0316
776.4000	74.0114
776.3000	73.9907
776.2000	73.9735
776.1000	73.9654
776.0000	73.9586
775.9000	73.9555
775.8000	73.9594
775.7000	73.971
775.6000	73.9849
775.5000	74.003
775.4000	74.0273
775.3000	74.0551
775.2000	74.0806
775.1000	74.1156
775.0000	74.1508
774.9000	74.1912
774.8000	74.234
774.7000	74.2777
774.6000	74.3346
774.5000	74.396
774.4000	74.4644
774.3000	74.5312
774.2000	74.6031
774.1000	74.6742
774.0000	74.7571
773.9000	74.8412
773.8000	74.9268
773.7000	75.0205
773.6000	75.1121
773.5000	75.2147
773.4000	75.3156
773.3000	75.4224
773.2000	75.5327
773.1000	75.65
773.0000	75.7644
772.9000	75.8773
772.8000	75.997
772.7000	76.1212
772.6000	76.2457
772.5000	76.3725
772.4000	76.4947
772.3000	76.6224
772.2000	76.7476
772.1000	76.8749
772.0000	77.0109
771.9000	77.1424
771.8000	77.2815
771.7000	77.4173
771.6000	77.5545
771.5000	77.6923
771.4000	77.8298
771.3000	77.9676
771.2000	78.1038
771.1000	78.2452
771.0000	78.387
770.9000	78.5315
770.8000	78.6712
770.7000	78.8099
770.6000	78.9555
770.5000	79.0945
770.4000	79.2357
770.3000	79.368
770.2000	79.4994
770.1000	79.6281
770.0000	79.7605
769.9000	79.8947
769.8000	80.028
769.7000	80.1555
769.6000	80.2836
769.5000	80.4079
769.4000	80.5241
769.3000	80.642
769.2000	80.7513
769.1000	80.8621
769.0000	80.9731
768.9000	81.077
768.8000	81.1746
768.7000	81.2721
768.6000	81.3646
768.5000	81.4626
768.4000	81.5453
768.3000	81.6281
768.2000	81.7045
768.1000	81.7726
768.0000	81.836
767.9000	81.8961
767.8000	81.9579
767.7000	82.0029
767.6000	82.0526
767.5000	82.0959
767.4000	82.1252
767.3000	82.1557
767.2000	82.1839
767.1000	82.2031
767.0000	82.2226
766.9000	82.2336
766.8000	82.2328
766.7000	82.2267
766.6000	82.2203
766.5000	82.2115
766.4000	82.1977
766.3000	82.1724
766.2000	82.1392
766.1000	82.1106
766.0000	82.0765
765.9000	82.0326
765.8000	81.9877
765.7000	81.9375
765.6000	81.8769
765.5000	81.8216
765.4000	81.7563
765.3000	81.6823
765.2000	81.6134
765.1000	81.5348
765.0000	81.4461
764.9000	81.3589
764.8000	81.2625
764.7000	81.1625
764.6000	81.0573
764.5000	80.9463
764.4000	80.8327
764.3000	80.7159
764.2000	80.5898
764.1000	80.4572
764.0000	80.3233
763.9000	80.1827
763.8000	80.039
763.7000	79.893
763.6000	79.7426
763.5000	79.593
763.4000	79.441
763.3000	79.2831
763.2000	79.1249
763.1000	78.9621
763.0000	78.8037
762.9000	78.639
762.8000	78.4787
762.7000	78.3086
762.6000	78.1463
762.5000	77.9858
762.4000	77.8229
762.3000	77.6558
762.2000	77.4897
762.1000	77.3228
762.0000	77.1613
761.9000	76.9896
761.8000	76.8195
761.7000	76.6486
761.6000	76.4834
761.5000	76.3228
761.4000	76.1545
761.3000	76
761.2000	75.8318
761.1000	75.6758
761.0000	75.5171
760.9000	75.3575
760.8000	75.201
760.7000	75.0506
760.6000	74.9005
760.5000	74.7536
760.4000	74.6012
760.3000	74.4628
760.2000	74.3269
760.1000	74.1931
760.0000	74.0619
759.9000	73.9301
759.8000	73.8067
759.7000	73.6717
759.6000	73.5467
759.5000	73.4275
759.4000	73.3103
759.3000	73.202
759.2000	73.0969
759.1000	72.9906
759.0000	72.8925
758.9000	72.7962
758.8000	72.7095
758.7000	72.6207
758.6000	72.5364
758.5000	72.4545
758.4000	72.383
758.3000	72.3127
758.2000	72.2488
758.1000	72.1949
758.0000	72.1442
757.9000	72.0986
757.8000	72.0562
757.7000	72.0141
757.6000	71.9841
757.5000	71.9605
757.4000	71.9387
757.3000	71.9234
757.2000	71.9102
757.1000	71.9079
757.0000	71.909
756.9000	71.9175
756.8000	71.9222
756.7000	71.9416
756.6000	71.9631
756.5000	71.9877
756.4000	72.0224
756.3000	72.0576
756.2000	72.1016
756.1000	72.1511
756.0000	72.1993
755.9000	72.2529
755.8000	72.3101
755.7000	72.3802
755.6000	72.4537
755.5000	72.5229
755.4000	72.6023
755.3000	72.6876
755.2000	72.7788
755.1000	72.8691
755.0000	72.9657
754.9000	73.0732
754.8000	73.1793
754.7000	73.2874
754.6000	73.3997
754.5000	73.5158
754.4000	73.6333
754.3000	73.7573
754.2000	73.8798
754.1000	74.008
754.0000	74.1418
753.9000	74.2787
753.8000	74.4165
753.7000	74.558
753.6000	74.6995
753.5000	74.8502
753.4000	74.9997
753.3000	75.1436
753.2000	75.3017
753.1000	75.4544
753.0000	75.6114
752.9000	75.7699
752.8000	75.9276
752.7000	76.0877
752.6000	76.2567
752.5000	76.4116
752.4000	76.5744
752.3000	76.7367
752.2000	76.898
752.1000	77.0589
752.0000	77.2211
751.9000	77.3793
751.8000	77.5394
751.7000	77.6971
751.6000	77.8442
751.5000	78.0026
751.4000	78.1566
751.3000	78.3051
751.2000	78.4592
751.1000	78.6046
751.0000	78.7429
750.9000	78.8882
750.8000	79.0219
750.7000	79.1643
750.6000	79.2974
750.5000	79.4226
750.4000	79.5441
750.3000	79.6617
750.2000	79.7717
750.1000	79.8865
750.0000	79.9962
749.9000	80.0993
749.8000	80.1953
749.7000	80.2917
749.6000	80.378
749.5000	80.4617
749.4000	80.5429
749.3000	80.6168
749.2000	80.6904
749.1000	80.7495
749.0000	80.8078
748.9000	80.8633
748.8000	80.9122
748.7000	80.9577
748.6000	80.9984
748.5000	81.0271
748.4000	81.0548
748.3000	81.0703
748.2000	81.0856
748.1000	81.0954
748.0000	81.099
747.9000	81.098
747.8000	81.0866
747.7000	81.0754
747.6000	81.0484
747.5000	81.0191
747.4000	80.9844
747.3000	80.9478
747.2000	80.9013
747.1000	80.8475
747.0000	80.7949
746.9000	80.7358
746.8000	80.6654
746.7000	80.5932
746.6000	80.5161
746.5000	80.4302
746.4000	80.3358
746.3000	80.2434
746.2000	80.1509
746.1000	80.0462
746.0000	79.9374
745.9000	79.8276
745.8000	79.7111
745.7000	79.5844
745.6000	79.4666
745.5000	79.3394
745.4000	79.203
745.3000	79.068
745.2000	78.9293
745.1000	78.7887
745.0000	78.6432
744.9000	78.4934
744.8000	78.35
744.7000	78.1978
744.6000	78.0417
744.5000	77.8823
744.4000	77.7277
744.3000	77.568
744.2000	77.41
744.1000	77.2504
744.0000	77.0836
743.9000	76.9182
743.8000	76.753
743.7000	76.5845
743.6000	76.4194
743.5000	76.257
743.4000	76.0939
743.3000	75.939
743.2000	75.775
743.1000	75.6112
743.0000	75.4527
742.9000	75.2932
742.8000	75.1405
742.7000	74.9842
742.6000	74.8311
742.5000	74.6836
742.4000	74.5361
742.3000	74.3965
742.2000	74.2594
742.1000	74.1273
742.0000	73.9952
741.9000	73.8617
741.8000	73.7334
741.7000	73.6083
741.6000	73.4906
741.5000	73.3741
741.4000	73.2608
741.3000	73.1522
741.2000	73.0465
741.1000	72.9448
741.0000	72.8493
740.9000	72.7582
740.8000	72.6712
740.7000	72.5874
740.6000	72.506
740.5000	72.4304
740.4000	72.366
740.3000	72.3105
740.2000	72.2537
740.1000	72.1931
740.0000	72.1414
739.9000	72.104
739.8000	72.0661
739.7000	72.0376
739.6000	72.009
739.5000	71.9904
739.4000	71.9826
739.3000	71.9748
739.2000	71.968
739.1000	71.9698
739.0000	71.9809
738.9000	71.9901
738.8000	72.0079
738.7000	72.0336
738.6000	72.0683
738.5000	72.1053
738.4000	72.1458
738.3000	72.1902
738.2000	72.2405
738.1000	72.2948
738.0000	72.3619
737.9000	72.4249
737.8000	72.4919
737.7000	72.5703
737.6000	72.6542
737.5000	72.745
737.4000	72.833
737.3000	72.9319
737.2000	73.0334
737.1000	73.1387
737.0000	73.2483
736.9000	73.3605
736.8000	73.4825
736.7000	73.6005
736.6000	73.7315
736.5000	73.8622
736.4000	73.997
736.3000	74.1353
736.2000	74.2774
736.1000	74.4196
736.0000	74.5643
735.9000	74.7083
735.8000	74.8615
735.7000	75.0201
735.6000	75.1759
735.5000	75.3331
735.4000	75.4888
735.3000	75.6548
735.2000	75.8203
735.1000	75.9883
735.0000	76.1543
734.9000	76.3224
734.8000	76.487
734.7000	76.6534
734.6000	76.8189
734.5000	76.9854
734.4000	77.158
734.3000	77.3315
734.2000	77.4964
734.1000	77.6573
734.0000	77.8296
733.9000	77.9968
733.8000	78.1634
733.7000	78.3201
733.6000	78.4789
733.5000	78.6355
733.4000	78.7854
733.3000	78.9396
733.2000	79.0904
733.1000	79.2389
733.0000	79.3863
732.9000	79.5232
732.8000	79.6554
732.7000	79.7841
732.6000	79.9136
732.5000	80.0398
732.4000	80.1529
732.3000	80.2614
732.2000	80.3695
732.1000	80.4768
732.0000	80.5759
731.9000	80.6702
731.8000	80.7639
731.7000	80.8438
731.6000	80.9216
731.5000	80.9963
731.4000	81.0609
731.3000	81.1264
731.2000	81.1846
731.1000	81.2387
731.0000	81.2868
730.9000	81.3254
730.8000	81.3596
730.7000	81.3917
730.6000	81.4179
730.5000	81.4359
730.4000	81.4422
730.3000	81.4485
730.2000	81.4466
730.1000	81.4415
730.0000	81.4304
729.9000	81.4065
729.8000	81.3826
729.7000	81.3539
729.6000	81.3201
729.5000	81.2747
729.4000	81.2245
729.3000	81.1703
729.2000	81.112
729.1000	81.0487
729.0000	80.977
728.9000	80.8995
728.8000	80.826
728.7000	80.7437
728.6000	80.6532
728.5000	80.5592
728.4000	80.4585
728.3000	80.3619
728.2000	80.2555
728.1000	80.1474
728.0000	80.0292
727.9000	79.9142
727.8000	79.7965
727.7000	79.6756
727.6000	79.5529
727.5000	79.4256
727.4000	79.2934
727.3000	79.1632
727.2000	79.0262
727.1000	78.8908
727.0000	78.7539
726.9000	78.6175
726.8000	78.4787
726.7000	78.3354
726.6000	78.1922
726.5000	78.0475
726.4000	77.9028
726.3000	77.759
726.2000	77.6116
726.1000	77.4598
726.0000	77.3114
725.9000	77.166
725.8000	77.0223
725.7000	76.875
725.6000	76.7324
725.5000	76.5848
725.4000	76.4486
725.3000	76.3063
725.2000	76.1705
725.1000	76.0375
725.0000	75.9053
724.9000	75.7779
724.8000	75.6551
724.7000	75.5324
724.6000	75.4109
724.5000	75.2989
724.4000	75.1877
724.3000	75.079
724.2000	74.9736
724.1000	74.8772
724.0000	74.7825
723.9000	74.6969
723.8000	74.6061
723.7000	74.5244
723.6000	74.4479
723.5000	74.373
723.4000	74.3057
723.3000	74.2404
723.2000	74.1821
723.1000	74.1298
723.0000	74.0844
722.9000	74.0439
722.8000	74.0107
722.7000	73.9788
722.6000	73.9532
722.5000	73.9335
722.4000	73.9193
722.3000	73.9119
722.2000	73.9093
722.1000	73.9127
722.0000	73.9209
721.9000	73.9358
721.8000	73.9563
721.7000	73.9795
721.6000	74.0106
721.5000	74.0481
721.4000	74.0896
721.3000	74.1359
721.2000	74.1874
721.1000	74.2477
721.0000	74.3106
720.9000	74.377
720.8000	74.4516
720.7000	74.5272
720.6000	74.6117
720.5000	74.7035
720.4000	74.7907
720.3000	74.8862
720.2000	74.9895
720.1000	75.095
720.0000	75.2054
719.9000	75.3171
719.8000	75.4377
719.7000	75.5583
719.6000	75.6803
719.5000	75.8052
719.4000	75.9366
719.3000	76.0742
719.2000	76.2077
719.1000	76.3485
719.0000	76.4918
718.9000	76.6338
718.8000	76.7872
718.7000	76.9404
718.6000	77.0895
718.5000	77.2439
718.4000	77.3968
718.3000	77.5523
718.2000	77.7041
718.1000	77.8605
718.0000	78.017
717.9000	78.1741
717.8000	78.3321
717.7000	78.4863
717.6000	78.6373
717.5000	78.789
717.4000	78.9411
717.3000	79.0953
717.2000	79.2483
717.1000	79.397
717.0000	79.548
716.9000	79.6981
716.8000	79.8425
716.7000	79.9857
716.6000	80.1274
716.5000	80.2659
716.4000	80.4031
716.3000	80.5376
716.2000	80.6671
716.1000	80.7942
716.0000	80.9248
715.9000	81.0456
715.8000	81.1622
715.7000	81.269
715.6000	81.3693
715.5000	81.468
715.4000	81.5612
715.3000	81.6544
715.2000	81.7404
715.1000	81.8197
715.0000	81.8966
714.9000	81.9679
714.8000	82.0351
714.7000	82.0918
714.6000	82.1437
714.5000	82.1881
714.4000	82.2308
714.3000	82.265
714.2000	82.291
714.1000	82.3186
714.0000	82.3384
713.9000	82.3497
713.8000	82.3569
713.7000	82.3516
713.6000	82.3434
713.5000	82.3312
713.4000	82.3099
713.3000	82.284
713.2000	82.2522
713.1000	82.2214
713.0000	82.1793
712.9000	82.134
712.8000	82.0776
712.7000	82.0176
712.6000	81.9565
712.5000	81.884
712.4000	81.8102
712.3000	81.7315
712.2000	81.6486
712.1000	81.5584
712.0000	81.4659
711.9000	81.367
711.8000	81.2691
711.7000	81.166
711.6000	81.0574
711.5000	80.941
711.4000	80.829
711.3000	80.7102
711.2000	80.5874
711.1000	80.4651
711.0000	80.3336
710.9000	80.2044
710.8000	80.0721
710.7000	79.9392
710.6000	79.8037
710.5000	79.6688
710.4000	79.5362
710.3000	79.4008
710.2000	79.2599
710.1000	79.1212
710.0000	78.9807
709.9000	78.8463
709.8000	78.71
709.7000	78.5714
709.6000	78.439
709.5000	78.3074
709.4000	78.1784
709.3000	78.05
709.2000	77.9221
709.1000	77.7999
709.0000	77.6745
708.9000	77.554
708.8000	77.4345
708.7000	77.3192
708.6000	77.2067
708.5000	77.1003
708.4000	76.9939
708.3000	76.8855
708.2000	76.7845
708.1000	76.6899
708.0000	76.5969
707.9000	76.5069
707.8000	76.4264
707.7000	76.3524
707.6000	76.2772
707.5000	76.2077
707.4000	76.1438
707.3000	76.0922
707.2000	76.0373
707.1000	75.9904
707.0000	75.951
706.9000	75.9091
706.8000	75.8791
706.7000	75.853
706.6000	75.8298
706.5000	75.8135
706.4000	75.805
706.3000	75.802
706.2000	75.8035
706.1000	75.8061
706.0000	75.8175
705.9000	75.8331
705.8000	75.8585
705.7000	75.8801
705.6000	75.9151
705.5000	75.9553
705.4000	75.9993
705.3000	76.0512
705.2000	76.1066
705.1000	76.169
705.0000	76.2301
704.9000	76.3037
704.8000	76.3794
704.7000	76.457
704.6000	76.5421
704.5000	76.6304
704.4000	76.731
704.3000	76.8288
704.2000	76.9289
704.1000	77.0343
704.0000	77.1428
703.9000	77.2543
703.8000	77.3705
703.7000	77.4893
703.6000	77.6115
703.5000	77.7394
703.4000	77.8774
703.3000	78.0109
703.2000	78.1451
703.1000	78.2847
703.0000	78.4224
702.9000	78.5637
702.8000	78.7057
702.7000	78.8508
702.6000	78.9962
702.5000	79.1434
702.4000	79.2887
702.3000	79.4352
702.2000	79.5783
702.1000	79.7218
702.0000	79.8655
701.9000	80.007
701.8000	80.1419
701.7000	80.2781
701.6000	80.412
701.5000	80.5478
701.4000	80.6817
701.3000	80.81
701.2000	80.9323
701.1000	81.0537
701.0000	81.1722
700.9000	81.2847
700.8000	81.399
700.7000	81.5002
700.6000	81.601
700.5000	81.6997
700.4000	81.7915
700.3000	81.8772
700.2000	81.9634
700.1000	82.0403
700.0000	82.1104
699.9000	82.1767
699.8000	82.2285
699.7000	82.2833
699.6000	82.3301
699.5000	82.369
699.4000	82.4048
699.3000	82.4369
699.2000	82.456
699.1000	82.4763
699.0000	82.487
698.9000	82.4916
698.8000	82.4925
698.7000	82.4857
698.6000	82.4713
698.5000	82.4511
698.4000	82.4301
698.3000	82.3933
698.2000	82.3607
698.1000	82.3156
698.0000	82.2637
697.9000	82.2123
697.8000	82.149
697.7000	82.0823
697.6000	82.0107
697.5000	81.9313
697.4000	81.8508
697.3000	81.7607
697.2000	81.662
697.1000	81.5631
697.0000	81.4583
696.9000	81.3463
696.8000	81.2254
696.7000	81.1088
696.6000	80.9857
696.5000	80.8588
696.4000	80.7279
696.3000	80.595
696.2000	80.4633
696.1000	80.3199
696.0000	80.176
695.9000	80.029
695.8000	79.8797
695.7000	79.733
695.6000	79.5858
695.5000	79.4349
695.4000	79.2797
695.3000	79.127
695.2000	78.9747
695.1000	78.8201
695.0000	78.6622
694.9000	78.5041
694.8000	78.3495
694.7000	78.1918
694.6000	78.0329
694.5000	77.8782
694.4000	77.7229
694.3000	77.5722
694.2000	77.424
694.1000	77.2692
694.0000	77.1172
693.9000	76.9649
693.8000	76.8186
693.7000	76.6784
693.6000	76.5384
693.5000	76.3989
693.4000	76.2616
693.3000	76.1306
693.2000	76.0014
693.1000	75.8746
693.0000	75.7539
692.9000	75.6342
692.8000	75.5197
692.7000	75.4122
692.6000	75.3043
692.5000	75.2045
692.4000	75.1098
692.3000	75.0181
692.2000	74.9325
692.1000	74.8484
692.0000	74.7708
691.9000	74.6977
691.8000	74.6337
691.7000	74.5763
691.6000	74.5206
691.5000	74.4686
691.4000	74.4206
691.3000	74.3854
691.2000	74.3525
691.1000	74.3243
691.0000	74.299
690.9000	74.2841
690.8000	74.2756
690.7000	74.2732
690.6000	74.2732
690.5000	74.2777
690.4000	74.2919
690.3000	74.3138
690.2000	74.3396
690.1000	74.3654
690.0000	74.4009
689.9000	74.4447
689.8000	74.4922
689.7000	74.5446
689.6000	74.6005
689.5000	74.6613
689.4000	74.7324
689.3000	74.8051
689.2000	74.8778
689.1000	74.9593
689.0000	75.051
688.9000	75.1459
688.8000	75.238
688.7000	75.3344
688.6000	75.4348
688.5000	75.5419
688.4000	75.6517
688.3000	75.7622
688.2000	75.8769
688.1000	75.994
688.0000	76.1204
687.9000	76.2405
687.8000	76.3643
687.7000	76.493
687.6000	76.6236
687.5000	76.7522
687.4000	76.8777
687.3000	77.0071
687.2000	77.1401
687.1000	77.2724
687.0000	77.4029
686.9000	77.5323
686.8000	77.6651
686.7000	77.7974
686.6000	77.9276
686.5000	78.0533
686.4000	78.1758
686.3000	78.304
686.2000	78.4225
686.1000	78.5362
686.0000	78.6541
685.9000	78.7704
685.8000	78.8807
685.7000	78.9882
685.6000	79.0901
685.5000	79.1917
685.4000	79.2896
685.3000	79.3836
685.2000	79.47
685.1000	79.5508
685.0000	79.6246
684.9000	79.6946
684.8000	79.7587
684.7000	79.8169
684.6000	79.8766
684.5000	79.9252
684.4000	79.9627
684.3000	79.9974
684.2000	80.0294
684.1000	80.0532
684.0000	80.0735
683.9000	80.085
683.8000	80.0921
683.7000	80.0906
683.6000	80.0861
683.5000	80.0736
683.4000	80.0559
683.3000	80.0325
683.2000	80.0026
683.1000	79.9693
683.0000	79.9212
682.9000	79.8782
682.8000	79.8286
682.7000	79.7676
682.6000	79.7005
682.5000	79.6278
682.4000	79.549
682.3000	79.4649
682.2000	79.3737
682.1000	79.2799
682.0000	79.1769
681.9000	79.069
681.8000	78.9612
681.7000	78.8433
681.6000	78.7231
681.5000	78.5944
681.4000	78.4648
681.3000	78.328
681.2000	78.1887
681.1000	78.0498
681.0000	77.9047
680.9000	77.756
680.8000	77.6073
680.7000	77.452
680.6000	77.299
680.5000	77.1409
680.4000	76.9806
680.3000	76.8226
680.2000	76.6575
680.1000	76.4972
680.0000	76.3333
679.9000	76.1703
679.8000	76.008
679.7000	75.8453
679.6000	75.679
679.5000	75.5148
679.4000	75.3563
679.3000	75.1983
679.2000	75.04
679.1000	74.8822
679.0000	74.728
678.9000	74.5794
678.8000	74.4344
678.7000	74.2923
678.6000	74.1552
678.5000	74.0215
678.4000	73.8942
678.3000	73.7685
678.2000	73.6513
678.1000	73.5379
678.0000	73.431
677.9000	73.327
677.8000	73.2275
677.7000	73.1362
677.6000	73.0507
677.5000	72.9771
677.4000	72.8989
677.3000	72.8295
677.2000	72.7685
677.1000	72.7133
677.0000	72.6659
676.9000	72.6221
676.8000	72.5839
676.7000	72.5564
676.6000	72.5276
676.5000	72.508
676.4000	72.4969
676.3000	72.4943
676.2000	72.5
676.1000	72.5088
676.0000	72.5277
675.9000	72.5518
675.8000	72.5846
675.7000	72.6215
675.6000	72.6667
675.5000	72.7125
675.4000	72.7686
675.3000	72.8325
675.2000	72.9008
675.1000	72.9725
675.0000	73.0539
674.9000	73.1411
674.8000	73.2316
674.7000	73.3272
674.6000	73.4268
674.5000	73.5305
674.4000	73.6357
674.3000	73.7447
674.2000	73.8646
674.1000	73.9852
674.0000	74.1071
673.9000	74.2348
673.8000	74.3636
673.7000	74.4952
673.6000	74.6312
673.5000	74.769
673.4000	74.9104
673.3000	75.0526
673.2000	75.1989
673.1000	75.3446
673.0000	75.4899
672.9000	75.6364
672.8000	75.7825
672.7000	75.9277
672.6000	76.0691
672.5000	76.2102
672.4000	76.3493
672.3000	76.4939
672.2000	76.6346
672.1000	76.7709
672.0000	76.9036
671.9000	77.0339
671.8000	77.1652
671.7000	77.2902
671.6000	77.4086
671.5000	77.5241
671.4000	77.6362
671.3000	77.746
671.2000	77.8519
671.1000	77.9521
671.0000	78.049
670.9000	78.1406
670.8000	78.2258
670.7000	78.3037
670.6000	78.375
670.5000	78.4418
670.4000	78.5031
670.3000	78.557
670.2000	78.6043
670.1000	78.6428
670.0000	78.677
669.9000	78.704
669.8000	78.7239
669.7000	78.7376
669.6000	78.7419
669.5000	78.7413
669.4000	78.7317
669.3000	78.7175
669.2000	78.6947
669.1000	78.6653
669.0000	78.6269
668.9000	78.585
668.8000	78.5328
668.7000	78.4788
668.6000	78.4148
668.5000	78.3463
668.4000	78.2673
668.3000	78.1864
668.2000	78.093
668.1000	77.9964
668.0000	77.8923
667.9000	77.7812
667.8000	77.6695
667.7000	77.548
667.6000	77.426
667.5000	77.2944
667.4000	77.1595
667.3000	77.0213
667.2000	76.8809
667.1000	76.7302
667.0000	76.5793
666.9000	76.425
666.8000	76.2708
666.7000	76.1129
666.6000	75.9562
666.5000	75.7894
666.4000	75.6263
666.3000	75.4628
666.2000	75.2957
666.1000	75.1269
666.0000	74.9562
665.9000	74.7898
665.8000	74.6233
665.7000	74.4495
665.6000	74.2822
665.5000	74.117
665.4000	73.9481
665.3000	73.7832
665.2000	73.6207
665.1000	73.4595
665.0000	73.3018
664.9000	73.1482
664.8000	72.9987
664.7000	72.8504
664.6000	72.7064
664.5000	72.5648
664.4000	72.4303
664.3000	72.2955
664.2000	72.1674
664.1000	72.0456
664.0000	71.9314
663.9000	71.8216
663.8000	71.7202
663.7000	71.6181
663.6000	71.5247
663.5000	71.4354
663.4000	71.3502
663.3000	71.2789
663.2000	71.2077
663.1000	71.1469
663.0000	71.0881
662.9000	71.046
662.8000	71.0025
662.7000	70.9674
662.6000	70.9463
662.5000	70.9332
662.4000	70.9172
662.3000	70.9115
662.2000	70.9095
662.1000	70.9224
662.0000	70.9385
661.9000	70.9627
661.8000	70.9965
661.7000	71.0305
661.6000	71.0764
661.5000	71.1283
661.4000	71.1913
661.3000	71.2524
661.2000	71.3255
661.1000	71.4084
661.0000	71.4891
660.9000	71.5768
660.8000	71.6743
660.7000	71.778
660.6000	71.8875
660.5000	72.0001
660.4000	72.1212
660.3000	72.2427
660.2000	72.3696
660.1000	72.5016
660.0000	72.6362
659.9000	72.7793
659.8000	72.9216
659.7000	73.0672
659.6000	73.2147
659.5000	73.3633
659.4000	73.5165
659.3000	73.6717
659.2000	73.8254
659.1000	73.9823
659.0000	74.1392
658.9000	74.2999
658.8000	74.4542
658.7000	74.6116
658.6000	74.7686
658.5000	74.9288
658.4000	75.0878
658.3000	75.2397
658.2000	75.3894
658.1000	75.5404
658.0000	75.6925
657.9000	75.8393
657.8000	75.9814
657.7000	76.1176
657.6000	76.2536
657.5000	76.3863
657.4000	76.5128
657.3000	76.6307
657.2000	76.7481
657.1000	76.8618
657.0000	76.9664
656.9000	77.0667
656.8000	77.1596
656.7000	77.2455
656.6000	77.3296
656.5000	77.4096
656.4000	77.4762
656.3000	77.5375
656.2000	77.5919
656.1000	77.6427
656.0000	77.6853
655.9000	77.718
655.8000	77.7452
655.7000	77.7665
655.6000	77.7788
655.5000	77.784
655.4000	77.785
655.3000	77.7762
655.2000	77.7576
655.1000	77.7361
655.0000	77.7056
654.9000	77.6673
654.8000	77.6224
654.7000	77.5704
654.6000	77.5112
654.5000	77.4441
654.4000	77.3719
654.3000	77.2915
654.2000	77.2088
654.1000	77.1164
654.0000	77.0214
653.9000	76.9179
653.8000	76.8076
653.7000	76.6922
653.6000	76.5735
653.5000	76.45
653.4000	76.3196
653.3000	76.1836
653.2000	76.0457
653.1000	75.9067
653.0000	75.7667
652.9000	75.6248
652.8000	75.4763
652.7000	75.3279
652.6000	75.1764
652.5000	75.0248
652.4000	74.8734
652.3000	74.7184
652.2000	74.5652
652.1000	74.4094
652.0000	74.2567
651.9000	74.1044
651.8000	73.9543
651.7000	73.8089
651.6000	73.6632
651.5000	73.5147
651.4000	73.3714
651.3000	73.2285
651.2000	73.0951
651.1000	72.9622
651.0000	72.8348
650.9000	72.7088
650.8000	72.5843
650.7000	72.4677
650.6000	72.356
650.5000	72.2546
650.4000	72.1573
650.3000	72.0596
650.2000	71.9685
650.1000	71.8824
650.0000	71.8056
649.9000	71.7354
649.8000	71.6685
649.7000	71.6109
649.6000	71.5607
649.5000	71.5139
649.4000	71.4734
649.3000	71.444
649.2000	71.4195
649.1000	71.4063
649.0000	71.3984
648.9000	71.3938
648.8000	71.3972
648.7000	71.41
648.6000	71.4316
648.5000	71.4601
648.4000	71.4943
648.3000	71.5401
648.2000	71.5888
648.1000	71.6434
648.0000	71.7001
647.9000	71.7714
647.8000	71.8459
647.7000	71.9275
647.6000	72.02
647.5000	72.113
647.4000	72.2138
647.3000	72.3205
647.2000	72.431
647.1000	72.5476
647.0000	72.6682
646.9000	72.7925
646.8000	72.9209
646.7000	73.0514
646.6000	73.1878
646.5000	73.3263
646.4000	73.4701
646.3000	73.6145
646.2000	73.7655
646.1000	73.915
646.0000	74.0676
645.9000	74.2234
645.8000	74.3781
645.7000	74.5339
645.6000	74.6924
645.5000	74.8501
645.4000	75.0081
645.3000	75.1635
645.2000	75.3179
645.1000	75.4709
645.0000	75.6218
644.9000	75.7744
644.8000	75.9232
644.7000	76.0678
644.6000	76.2091
644.5000	76.352
644.4000	76.4857
644.3000	76.6193
644.2000	76.7471
644.1000	76.8713
644.0000	76.9888
643.9000	77.1025
643.8000	77.2091
643.7000	77.3131
643.6000	77.4113
643.5000	77.5094
643.4000	77.5991
643.3000	77.6797
643.2000	77.7564
643.1000	77.8284
643.0000	77.8899
642.9000	77.9446
642.8000	77.9925
642.7000	78.0323
642.6000	78.0661
642.5000	78.0929
642.4000	78.1104
642.3000	78.123
642.2000	78.1273
642.1000	78.1254
642.0000	78.1229
641.9000	78.1028
641.8000	78.0794
641.7000	78.0485
641.6000	78.0111
641.5000	77.9635
641.4000	77.9121
641.3000	77.8522
641.2000	77.7897
641.1000	77.7141
641.0000	77.636
640.9000	77.5537
640.8000	77.4667
640.7000	77.3768
640.6000	77.2829
640.5000	77.178
640.4000	77.0654
640.3000	76.9569
640.2000	76.8465
640.1000	76.7313
640.0000	76.6143
639.9000	76.4938
639.8000	76.3707
639.7000	76.2474
639.6000	76.1169
639.5000	75.994
639.4000	75.8662
639.3000	75.7376
639.2000	75.6099
639.1000	75.4782
639.0000	75.3478
638.9000	75.2214
638.8000	75.0936
638.7000	74.9669
638.6000	74.8391
638.5000	74.7174
638.4000	74.5967
638.3000	74.4813
638.2000	74.3702
638.1000	74.2604
638.0000	74.1591
637.9000	74.0558
637.8000	73.9595
637.7000	73.8643
637.6000	73.7786
637.5000	73.6956
637.4000	73.6183
637.3000	73.5482
637.2000	73.4857
637.1000	73.4254
637.0000	73.3719
636.9000	73.326
636.8000	73.2811
636.7000	73.2468
636.6000	73.2154
636.5000	73.1884
636.4000	73.1711
636.3000	73.1618
636.2000	73.1586
636.1000	73.1622
636.0000	73.1686
635.9000	73.1858
635.8000	73.2114
635.7000	73.2405
635.6000	73.274
635.5000	73.3149
635.4000	73.363
635.3000	73.417
635.2000	73.4824
635.1000	73.548
635.0000	73.6199
634.9000	73.7025
634.8000	73.7865
634.7000	73.8752
634.6000	73.9669
634.5000	74.0658
634.4000	74.1727
634.3000	74.2805
634.2000	74.3872
634.1000	74.5028
634.0000	74.6253
633.9000	74.7513
633.8000	74.8796
633.7000	75.0024
633.6000	75.1285
633.5000	75.2623
633.4000	75.4003
633.3000	75.5311
633.2000	75.6662
633.1000	75.8016
633.0000	75.9377
632.9000	76.0738
632.8000	76.2074
632.7000	76.341
632.6000	76.4784
632.5000	76.6099
632.4000	76.7387
632.3000	76.8654
632.2000	76.9871
632.1000	77.1115
632.0000	77.2314
631.9000	77.3457
631.8000	77.4537
631.7000	77.5632
631.6000	77.6636
631.5000	77.7607
631.4000	77.857
631.3000	77.9474
631.2000	78.0294
631.1000	78.1073
631.0000	78.1767
630.9000	78.2441
630.8000	78.3021
630.7000	78.3513
630.6000	78.3981
630.5000	78.4448
630.4000	78.4814
630.3000	78.5083
630.2000	78.5317
630.1000	78.5447
630.0000	78.5577
629.9000	78.5606
629.8000	78.5552
629.7000	78.543
629.6000	78.5268
629.5000	78.503
629.4000	78.4726
629.3000	78.4353
629.2000	78.3947
629.1000	78.3473
629.0000	78.2942
628.9000	78.2304
628.8000	78.1582
628.7000	78.0881
628.6000	78.0084
628.5000	77.9251
628.4000	77.8338
628.3000	77.7439
628.2000	77.6493
628.1000	77.5495
628.0000	77.4444
627.9000	77.3351
627.8000	77.2245
627.7000	77.1124
627.6000	76.9904
627.5000	76.8752
627.4000	76.7536
627.3000	76.6342
627.2000	76.5195
627.1000	76.3944
627.0000	76.275
626.9000	76.1535
626.8000	76.0361
626.7000	75.9154
626.6000	75.791
626.5000	75.6716
626.4000	75.5582
626.3000	75.4463
626.2000	75.3386
626.1000	75.2295
626.0000	75.1305
625.9000	75.028
625.8000	74.9305
625.7000	74.8341
625.6000	74.7405
625.5000	74.6562
625.4000	74.569
625.3000	74.4918
625.2000	74.4206
625.1000	74.3525
625.0000	74.2936
624.9000	74.2373
624.8000	74.184
624.7000	74.1399
624.6000	74.0978
624.5000	74.0644
624.4000	74.0368
624.3000	74.0145
624.2000	73.9994
624.1000	73.9926
624.0000	73.9928
623.9000	73.9985
623.8000	74.0133
623.7000	74.0341
623.6000	74.0498
623.5000	74.0762
623.4000	74.1126
623.3000	74.1565
623.2000	74.2057
623.1000	74.2556
623.0000	74.3124
622.9000	74.3739
622.8000	74.4414
622.7000	74.5169
622.6000	74.5952
622.5000	74.6753
622.4000	74.7586
622.3000	74.8474
622.2000	74.9386
622.1000	75.0323
622.0000	75.14
621.9000	75.2487
621.8000	75.3572
621.7000	75.4631
621.6000	75.5738
621.5000	75.6906
621.4000	75.8037
621.3000	75.9198
621.2000	76.0329
621.1000	76.1472
621.0000	76.2616
620.9000	76.3728
620.8000	76.4832
620.7000	76.5936
620.6000	76.7044
620.5000	76.8083
620.4000	76.9087
620.3000	77.0032
620.2000	77.0957
620.1000	77.1867
620.0000	77.2701
619.9000	77.3496
619.8000	77.429
619.7000	77.5005
619.6000	77.5689
619.5000	77.6303
619.4000	77.6861
619.3000	77.7403
619.2000	77.7925
619.1000	77.8334
619.0000	77.8642
618.9000	77.8946
618.8000	77.9191
618.7000	77.9377
618.6000	77.9431
618.5000	77.9458
618.4000	77.9466
618.3000	77.9369
618.2000	77.9203
618.1000	77.8967
618.0000	77.8686
617.9000	77.8305
617.8000	77.7895
617.7000	77.7417
617.6000	77.683
617.5000	77.6195
617.4000	77.553
617.3000	77.4763
617.2000	77.393
617.1000	77.3088
617.0000	77.226
616.9000	77.1346
616.8000	77.0337
616.7000	76.9307
616.6000	76.8219
616.5000	76.711
616.4000	76.5956
616.3000	76.4771
616.2000	76.3551
616.1000	76.2228
616.0000	76.0933
615.9000	75.9615
615.8000	75.8307
615.7000	75.7005
615.6000	75.5666
615.5000	75.4304
615.4000	75.2885
615.3000	75.1503
615.2000	75.0121
615.1000	74.8732
615.0000	74.7387
614.9000	74.6039
614.8000	74.4692
614.7000	74.3376
614.6000	74.2064
614.5000	74.0846
614.4000	73.9613
614.3000	73.8423
614.2000	73.7232
614.1000	73.6136
614.0000	73.5072
613.9000	73.4037
613.8000	73.3081
613.7000	73.2126
613.6000	73.1228
613.5000	73.0469
613.4000	72.9728
613.3000	72.9029
613.2000	72.8394
613.1000	72.7845
613.0000	72.7377
612.9000	72.696
612.8000	72.6619
612.7000	72.6348
612.6000	72.618
612.5000	72.602
612.4000	72.5928
612.3000	72.5949
612.2000	72.602
612.1000	72.6176
612.0000	72.6426
611.9000	72.6635
611.8000	72.6948
611.7000	72.7342
611.6000	72.7811
611.5000	72.8321
611.4000	72.8911
611.3000	72.9529
611.2000	73.0219
611.1000	73.0938
611.0000	73.1692
610.9000	73.2517
610.8000	73.3393
610.7000	73.4218
610.6000	73.5155
610.5000	73.6148
610.4000	73.7136
610.3000	73.8179
610.2000	73.9218
610.1000	74.0267
610.0000	74.1357
609.9000	74.245
609.8000	74.3528
609.7000	74.4617
609.6000	74.5662
609.5000	74.6768
609.4000	74.7846
609.3000	74.8856
609.2000	74.9872
609.1000	75.09
609.0000	75.1866
608.9000	75.2743
608.8000	75.3669
608.7000	75.451
608.6000	75.5344
608.5000	75.6105
608.4000	75.6815
608.3000	75.7519
608.2000	75.8121
608.1000	75.8704
608.0000	75.924
607.9000	75.9674
607.8000	76.0071
607.7000	76.0452
607.6000	76.0729
607.5000	76.0935
607.4000	76.1058
607.3000	76.1189
607.2000	76.1168
607.1000	76.1098
607.0000	76.0973
606.9000	76.0774
606.8000	76.0497
606.7000	76.0107
606.6000	75.9692
606.5000	75.9197
606.4000	75.8641
606.3000	75.798
606.2000	75.7263
606.1000	75.6458
606.0000	75.5613
605.9000	75.4712
605.8000	75.3756
605.7000	75.2694
605.6000	75.162
605.5000	75.0498
605.4000	74.9295
605.3000	74.8083
605.2000	74.6818
605.1000	74.5526
605.0000	74.416
604.9000	74.2753
604.8000	74.1318
604.7000	73.9894
604.6000	73.8429
604.5000	73.6956
604.4000	73.5483
604.3000	73.4009
604.2000	73.2525
604.1000	73.1025
604.0000	72.9519
603.9000	72.8031
603.8000	72.6526
603.7000	72.5061
603.6000	72.3606
603.5000	72.2185
603.4000	72.0796
603.3000	71.942
603.2000	71.8078
603.1000	71.6783
603.0000	71.5518
602.9000	71.4278
602.8000	71.3109
602.7000	71.1997
602.6000	71.0938
602.5000	70.9917
602.4000	70.8952
602.3000	70.805
602.2000	70.7227
602.1000	70.6461
602.0000	70.5744
601.9000	70.5073
601.8000	70.4479
601.7000	70.3981
601.6000	70.3584
601.5000	70.3237
601.4000	70.2951
601.3000	70.278
601.2000	70.2667
601.1000	70.2633
601.0000	70.2617
600.9000	70.2737
600.8000	70.2902
600.7000	70.3145
600.6000	70.3492
600.5000	70.3873
600.4000	70.4296
600.3000	70.4838
600.2000	70.5475
600.1000	70.6135
600.0000	70.8372
599.9000	70.9217
599.8000	71.0074
599.7000	71.1022
599.6000	71.1983
599.5000	71.2963
599.4000	71.401
599.3000	71.5092
599.2000	71.6151
599.1000	71.7297
599.0000	71.8455
598.9000	71.966
598.8000	72.0841
598.7000	72.204
598.6000	72.3207
598.5000	72.438
598.4000	72.5597
598.3000	72.6801
598.2000	72.7984
598.1000	72.913
598.0000	73.0299
597.9000	73.1452
597.8000	73.2587
597.7000	73.362
597.6000	73.4669
597.5000	73.559
597.4000	73.6549
597.3000	73.742
597.2000	73.8231
597.1000	73.901
597.0000	73.9753
596.9000	74.0451
596.8000	74.1045
596.7000	74.1577
596.6000	74.205
596.5000	74.2418
596.4000	74.2727
596.3000	74.2927
596.2000	74.3067
596.1000	74.3175
596.0000	74.3198
595.9000	74.3167
595.8000	74.2993
595.7000	74.2812
595.6000	74.2569
595.5000	74.2193
595.4000	74.1751
595.3000	74.1254
595.2000	74.0686
595.1000	74.003
595.0000	73.9295
594.9000	73.8561
594.8000	73.7713
594.7000	73.6849
594.6000	73.5842
594.5000	73.4808
594.4000	73.3711
594.3000	73.2599
594.2000	73.1426
594.1000	73.0172
594.0000	72.8929
593.9000	72.7651
593.8000	72.6309
593.7000	72.4942
593.6000	72.3554
593.5000	72.2178
593.4000	72.0783
593.3000	71.9333
593.2000	71.7942
593.1000	71.6529
593.0000	71.5125
592.9000	71.3733
592.8000	71.2365
592.7000	71.1011
592.6000	70.9692
592.5000	70.8387
592.4000	70.7077
592.3000	70.5826
592.2000	70.4626
592.1000	70.347
592.0000	70.2397
591.9000	70.1315
591.8000	70.0311
591.7000	69.9372
591.6000	69.8438
591.5000	69.7601
591.4000	69.6873
591.3000	69.6189
591.2000	69.5585
591.1000	69.5038
591.0000	69.4543
590.9000	69.4183
590.8000	69.386
590.7000	69.3652
590.6000	69.3491
590.5000	69.339
590.4000	69.3371
590.3000	69.3417
590.2000	69.3589
590.1000	69.3804
590.0000	69.413
589.9000	69.4494
589.8000	69.4949
589.7000	69.5462
589.6000	69.6027
589.5000	69.6641
589.4000	69.7368
589.3000	69.8101
589.2000	69.8926
589.1000	69.9786
589.0000	70.0721
588.9000	70.1694
588.8000	70.271
588.7000	70.3786
588.6000	70.4877
588.5000	70.6047
588.4000	70.719
588.3000	70.8398
588.2000	70.9591
588.1000	71.0837
588.0000	71.2099
587.9000	71.3353
587.8000	71.4604
587.7000	71.588
587.6000	71.7166
587.5000	71.8391
587.4000	71.9644
587.3000	72.0893
587.2000	72.2117
587.1000	72.332
587.0000	72.4484
586.9000	72.5596
586.8000	72.6722
586.7000	72.7791
586.6000	72.8813
586.5000	72.9748
586.4000	73.0686
586.3000	73.1575
586.2000	73.2386
586.1000	73.3147
586.0000	73.3857
585.9000	73.4527
585.8000	73.5102
585.7000	73.5595
585.6000	73.6001
585.5000	73.6363
585.4000	73.6647
585.3000	73.6833
585.2000	73.6964
585.1000	73.7041
585.0000	73.7047
584.9000	73.6973
584.8000	73.6745
584.7000	73.6547
584.6000	73.6245
584.5000	73.588
584.4000	73.5401
584.3000	73.485
584.2000	73.4307
584.1000	73.3693
584.0000	73.3002
583.9000	73.2298
583.8000	73.154
583.7000	73.0702
583.6000	72.9777
583.5000	72.8798
583.4000	72.7808
583.3000	72.682
583.2000	72.5823
583.1000	72.4723
583.0000	72.364
582.9000	72.2554
582.8000	72.1468
582.7000	72.0356
582.6000	71.9193
582.5000	71.808
582.4000	71.6948
582.3000	71.5792
582.2000	71.4679
582.1000	71.3615
582.0000	71.2562
581.9000	71.1567
581.8000	71.0594
581.7000	70.9609
581.6000	70.8684
581.5000	70.7797
581.4000	70.6959
581.3000	70.6128
581.2000	70.5373
581.1000	70.4671
581.0000	70.4043
580.9000	70.3408
580.8000	70.2866
580.7000	70.2414
580.6000	70.1982
580.5000	70.1657
580.4000	70.1402
580.3000	70.1175
580.2000	70.1015
580.1000	70.097
580.0000	70.098
579.9000	70.1052
579.8000	70.1194
579.7000	70.1425
579.6000	70.1713
579.5000	70.2095
579.4000	70.2472
579.3000	70.3006
579.2000	70.3599
579.1000	70.4255
579.0000	70.4954
578.9000	70.5657
578.8000	70.6492
578.7000	70.7357
578.6000	70.8256
578.5000	70.9169
578.4000	71.0146
578.3000	71.121
578.2000	71.2285
578.1000	71.3343
578.0000	71.4479
577.9000	71.5608
577.8000	71.6831
577.7000	71.7984
577.6000	71.9157
577.5000	72.0294
577.4000	72.1476
577.3000	72.2691
577.2000	72.3842
577.1000	72.4991
577.0000	72.6165
576.9000	72.7311
576.8000	72.8427
576.7000	72.9485
576.6000	73.0585
576.5000	73.1626
576.4000	73.2559
576.3000	73.3525
576.2000	73.4408
576.1000	73.5281
576.0000	73.6085
575.9000	73.6831
575.8000	73.7524
575.7000	73.8175
575.6000	73.8764
575.5000	73.9287
575.4000	73.97
575.3000	74.0113
575.2000	74.0456
575.1000	74.0714
575.0000	74.0879
574.9000	74.1032
574.8000	74.1131
574.7000	74.1147
574.6000	74.1061
574.5000	74.0932
574.4000	74.0767
574.3000	74.054
574.2000	74.0243
574.1000	73.9871
574.0000	73.9448
573.9000	73.9034
573.8000	73.8572
573.7000	73.8022
573.6000	73.7374
573.5000	73.673
573.4000	73.6094
573.3000	73.537
573.2000	73.4601
573.1000	73.3796
573.0000	73.3017
572.9000	73.2204
572.8000	73.1325
572.7000	73.0451
572.6000	72.953
572.5000	72.8649
572.4000	72.7756
572.3000	72.6818
572.2000	72.5922
572.1000	72.5044
572.0000	72.4258
571.9000	72.3424
571.8000	72.2553
571.7000	72.1775
571.6000	72.0987
571.5000	72.0277
571.4000	71.959
571.3000	71.8915
571.2000	71.8347
571.1000	71.7758
571.0000	71.7287
570.9000	71.6807
570.8000	71.6401
570.7000	71.6077
570.6000	71.5766
570.5000	71.5524
570.4000	71.5299
570.3000	71.5167
570.2000	71.5096
570.1000	71.5083
570.0000	71.52
569.9000	71.5301
569.8000	71.5444
569.7000	71.568
569.6000	71.5963
569.5000	71.6347
569.4000	71.6761
569.3000	71.7229
569.2000	71.7758
569.1000	71.8292
569.0000	71.8876
568.9000	71.9496
568.8000	72.0205
568.7000	72.0922
568.6000	72.1682
568.5000	72.2458
568.4000	72.3246
568.3000	72.4062
568.2000	72.4958
568.1000	72.5849
568.0000	72.67
567.9000	72.7606
567.8000	72.8515
567.7000	72.941
567.6000	73.0297
567.5000	73.12
567.4000	73.2098
567.3000	73.301
567.2000	73.387
567.1000	73.4706
567.0000	73.5516
566.9000	73.629
566.8000	73.7032
566.7000	73.777
566.6000	73.8419
566.5000	73.9021
566.4000	73.9609
566.3000	74.0159
566.2000	74.0652
566.1000	74.1091
566.0000	74.1461
565.9000	74.1791
565.8000	74.2034
565.7000	74.2238
565.6000	74.2364
565.5000	74.25
565.4000	74.2519
565.3000	74.2474
565.2000	74.2432
565.1000	74.226
565.0000	74.2085
564.9000	74.1842
564.8000	74.1526
564.7000	74.1131
564.6000	74.0705
564.5000	74.0286
564.4000	73.9777
564.3000	73.921
564.2000	73.8633
564.1000	73.7965
564.0000	73.7285
563.9000	73.6527
563.8000	73.5773
563.7000	73.5015
563.6000	73.4167
563.5000	73.3324
563.4000	73.243
563.3000	73.1546
563.2000	73.0699
563.1000	72.9842
563.0000	72.8912
562.9000	72.7966
562.8000	72.7104
562.7000	72.6201
562.6000	72.5313
562.5000	72.4471
562.4000	72.366
562.3000	72.2867
562.2000	72.2074
562.1000	72.1336
562.0000	72.0618
561.9000	71.9946
561.8000	71.9344
561.7000	71.8769
561.6000	71.8219
561.5000	71.7731
561.4000	71.7295
561.3000	71.6922
561.2000	71.6545
561.1000	71.6229
561.0000	71.6026
560.9000	71.5854
560.8000	71.5712
560.7000	71.5619
560.6000	71.5626
560.5000	71.5629
560.4000	71.5731
560.3000	71.5884
560.2000	71.6053
560.1000	71.6292
560.0000	71.6566
559.9000	71.6843
559.8000	71.7222
559.7000	71.7594
559.6000	71.8048
559.5000	71.8568
559.4000	71.9061
559.3000	71.9621
559.2000	72.0196
559.1000	72.081
559.0000	72.1412
558.9000	72.2089
558.8000	72.2737
558.7000	72.3433
558.6000	72.4121
558.5000	72.477
558.4000	72.5425
558.3000	72.611
558.2000	72.6798
558.1000	72.7471
558.0000	72.8083
557.9000	72.8691
557.8000	72.9285
557.7000	72.9781
557.6000	73.0284
557.5000	73.077
557.4000	73.122
557.3000	73.1578
557.2000	73.1951
557.1000	73.2217
557.0000	73.2466
556.9000	73.2669
556.8000	73.2818
556.7000	73.2928
556.6000	73.2923
556.5000	73.2876
556.4000	73.2805
556.3000	73.2639
556.2000	73.2435
556.1000	73.2169
556.0000	73.1877
555.9000	73.1475
555.8000	73.1
555.7000	73.0504
555.6000	72.9928
555.5000	72.9299
555.4000	72.8623
555.3000	72.7899
555.2000	72.7133
555.1000	72.6308
555.0000	72.5482
554.9000	72.4609
554.8000	72.3673
554.7000	72.2739
554.6000	72.1751
554.5000	72.0755
554.4000	71.9702
554.3000	71.8675
554.2000	71.7683
554.1000	71.6622
554.0000	71.554
553.9000	71.4491
553.8000	71.3428
553.7000	71.2388
553.6000	71.1376
553.5000	71.0369
553.4000	70.938
553.3000	70.8429
553.2000	70.7507
553.1000	70.6639
553.0000	70.5802
552.9000	70.5027
552.8000	70.4248
552.7000	70.3514
552.6000	70.2851
552.5000	70.2236
552.4000	70.1698
552.3000	70.12
552.2000	70.0724
552.1000	70.0344
552.0000	69.9993
551.9000	69.9734
551.8000	69.9504
551.7000	69.9316
551.6000	69.9242
551.5000	69.9216
551.4000	69.921
551.3000	69.9268
551.2000	69.94
551.1000	69.9617
551.0000	69.9831
550.9000	70.0141
550.8000	70.0474
550.7000	70.0858
550.6000	70.1334
550.5000	70.1793
550.4000	70.2292
550.3000	70.2811
550.2000	70.3362
550.1000	70.3991
550.0000	70.4577
549.9000	70.515
549.8000	70.5827
549.7000	70.645
549.6000	70.7082
549.5000	70.7693
549.4000	70.8309
549.3000	70.8927
549.2000	70.9511
549.1000	71.0091
549.0000	71.0655
548.9000	71.1211
548.8000	71.1759
548.7000	71.223
548.6000	71.2682
548.5000	71.3073
548.4000	71.3414
548.3000	71.376
548.2000	71.3999
548.1000	71.4193
548.0000	71.4342
547.9000	71.4437
547.8000	71.4465
547.7000	71.4435
547.6000	71.4371
547.5000	71.4244
547.4000	71.4026
547.3000	71.3778
547.2000	71.3423
547.1000	71.3041
547.0000	71.2576
546.9000	71.2074
546.8000	71.1489
546.7000	71.0843
546.6000	71.0157
546.5000	70.9467
546.4000	70.8724
546.3000	70.7901
546.2000	70.7079
546.1000	70.6196
546.0000	70.5272
545.9000	70.4286
545.8000	70.3261
545.7000	70.2202
545.6000	70.1148
545.5000	70.0064
545.4000	69.896
545.3000	69.7842
545.2000	69.6798
545.1000	69.5699
545.0000	69.4604
544.9000	69.3505
544.8000	69.2414
544.7000	69.1351
544.6000	69.0294
544.5000	68.9239
544.4000	68.828
544.3000	68.7358
544.2000	68.6497
544.1000	68.5646
544.0000	68.4865
543.9000	68.4124
543.8000	68.3429
543.7000	68.2767
543.6000	68.2141
543.5000	68.1574
543.4000	68.1097
543.3000	68.0694
543.2000	68.0375
543.1000	68.0093
543.0000	67.9903
542.9000	67.9802
542.8000	67.9704
542.7000	67.967
542.6000	67.9694
542.5000	67.979
542.4000	67.9917
542.3000	68.0111
542.2000	68.042
542.1000	68.078
542.0000	68.1162
541.9000	68.1668
541.8000	68.2154
541.7000	68.2649
541.6000	68.3199
541.5000	68.3814
541.4000	68.4421
541.3000	68.5055
541.2000	68.5688
541.1000	68.6376
541.0000	68.7101
540.9000	68.7837
540.8000	68.8575
540.7000	68.9355
540.6000	69.0091
540.5000	69.0822
540.4000	69.1573
540.3000	69.222
540.2000	69.2911
540.1000	69.3582
540.0000	69.4209
539.9000	69.4806
539.8000	69.5367
539.7000	69.5926
539.6000	69.6436
539.5000	69.6888
539.4000	69.7265
539.3000	69.7616
539.2000	69.7926
539.1000	69.8129
539.0000	69.83
538.9000	69.8405
538.8000	69.8462
538.7000	69.8496
538.6000	69.841
538.5000	69.8309
538.4000	69.8153
538.3000	69.7906
538.2000	69.763
538.1000	69.726
538.0000	69.6856
537.9000	69.6404
537.8000	69.5922
537.7000	69.5339
537.6000	69.4753
537.5000	69.4115
537.4000	69.3438
537.3000	69.2712
537.2000	69.1947
537.1000	69.1186
537.0000	69.0395
536.9000	68.9575
536.8000	68.8684
536.7000	68.7833
536.6000	68.6956
536.5000	68.609
536.4000	68.5241
536.3000	68.4347
536.2000	68.3466
536.1000	68.2654
536.0000	68.1827
535.9000	68.0998
535.8000	68.0209
535.7000	67.9479
535.6000	67.878
535.5000	67.8092
535.4000	67.7485
535.3000	67.6887
535.2000	67.6392
535.1000	67.592
535.0000	67.5497
534.9000	67.5122
534.8000	67.4771
534.7000	67.4558
534.6000	67.4339
534.5000	67.419
534.4000	67.408
534.3000	67.4088
534.2000	67.4092
534.1000	67.4176
534.0000	67.429
533.9000	67.4478
533.8000	67.4709
533.7000	67.5009
533.6000	67.5367
533.5000	67.5775
533.4000	67.6261
533.3000	67.673
533.2000	67.726
533.1000	67.7838
533.0000	67.8471
532.9000	67.9118
532.8000	67.9808
532.7000	68.0514
532.6000	68.1278
532.5000	68.2051
532.4000	68.2852
532.3000	68.3639
532.2000	68.4464
532.1000	68.5268
532.0000	68.605
531.9000	68.6842
531.8000	68.7598
531.7000	68.8419
531.6000	68.9182
531.5000	68.9911
531.4000	69.0619
531.3000	69.1271
531.2000	69.1927
531.1000	69.2531
531.0000	69.3111
530.9000	69.3653
530.8000	69.4139
530.7000	69.4589
530.6000	69.498
530.5000	69.5344
530.4000	69.5625
530.3000	69.5866
530.2000	69.6035
530.1000	69.613
530.0000	69.6214
529.9000	69.6275
529.8000	69.6277
529.7000	69.6247
529.6000	69.61
529.5000	69.5912
529.4000	69.5694
529.3000	69.5412
529.2000	69.5106
529.1000	69.471
529.0000	69.4304
528.9000	69.3871
528.8000	69.3456
528.7000	69.2957
528.6000	69.2453
528.5000	69.1935
528.4000	69.1426
528.3000	69.0821
528.2000	69.0259
528.1000	68.9675
528.0000	68.9122
527.9000	68.8592
527.8000	68.7989
527.7000	68.7429
527.6000	68.6857
527.5000	68.6403
527.4000	68.5921
527.3000	68.5476
527.2000	68.5003
527.1000	68.4609
527.0000	68.4241
526.9000	68.3903
526.8000	68.3558
526.7000	68.3306
526.6000	68.3076
526.5000	68.2877
526.4000	68.2732
526.3000	68.2639
526.2000	68.2658
526.1000	68.2672
526.0000	68.2753
525.9000	68.2834
525.8000	68.2998
525.7000	68.3143
525.6000	68.3405
525.5000	68.3661
525.4000	68.4003
525.3000	68.4375
525.2000	68.4789
525.1000	68.5261
525.0000	68.5722
524.9000	68.6263
524.8000	68.6811
524.7000	68.7334
524.6000	68.791
524.5000	68.8523
524.4000	68.9151
524.3000	68.9809
524.2000	69.0442
524.1000	69.1115
524.0000	69.1771
523.9000	69.2442
523.8000	69.3079
523.7000	69.3727
523.6000	69.4389
523.5000	69.4988
523.4000	69.5588
523.3000	69.614
523.2000	69.6709
523.1000	69.7282
523.0000	69.774
522.9000	69.8162
522.8000	69.8584
522.7000	69.8947
522.6000	69.9274
522.5000	69.9592
522.4000	69.9846
522.3000	70.0075
522.2000	70.0294
522.1000	70.0434
522.0000	70.0542
521.9000	70.0583
521.8000	70.0627
521.7000	70.0585
521.6000	70.0501
521.5000	70.0393
521.4000	70.0299
521.3000	70.0129
521.2000	69.994
521.1000	69.9697
521.0000	69.9459
520.9000	69.9147
520.8000	69.8821
520.7000	69.8494
520.6000	69.8092
520.5000	69.7751
520.4000	69.7355
520.3000	69.6932
520.2000	69.6507
520.1000	69.6127
520.0000	69.6154
519.9000	69.5783
519.8000	69.5365
519.7000	69.5001
519.6000	69.4637
519.5000	69.4294
519.4000	69.3999
519.3000	69.3689
519.2000	69.3375
519.1000	69.3097
519.0000	69.2904
518.9000	69.2681
518.8000	69.2484
518.7000	69.2308
518.6000	69.2216
518.5000	69.2151
518.4000	69.2093
518.3000	69.2072
518.2000	69.2171
518.1000	69.2241
518.0000	69.2332
517.9000	69.2447
517.8000	69.2577
517.7000	69.2767
517.6000	69.2971
517.5000	69.3195
517.4000	69.3424
517.3000	69.3716
517.2000	69.4031
517.1000	69.4348
517.0000	69.4687
516.9000	69.5049
516.8000	69.5443
516.7000	69.5814
516.6000	69.6072
516.5000	69.6401
516.4000	69.6759
516.3000	69.7135
516.2000	69.7455
516.1000	69.7816
516.0000	69.8163
515.9000	69.853
515.8000	69.8859
515.7000	69.9137
515.6000	69.9395
515.5000	69.9632
515.4000	69.9843
515.3000	70.0003
515.2000	70.0137
515.1000	70.0249
515.0000	70.0375
514.9000	70.0436
514.8000	70.0439
514.7000	70.0392
514.6000	70.0351
514.5000	70.026
514.4000	70.0127
514.3000	69.9938
514.2000	69.9742
514.1000	69.9531
514.0000	69.9208
513.9000	69.8908
513.8000	69.8597
513.7000	69.8223
513.6000	69.7836
513.5000	69.7441
513.4000	69.7033
513.3000	69.6576
513.2000	69.6125
513.1000	69.568
513.0000	69.5218
512.9000	69.4706
512.8000	69.4219
512.7000	69.3731
512.6000	69.3209
512.5000	69.2701
512.4000	69.2276
512.3000	69.1816
512.2000	69.1334
512.1000	69.0868
512.0000	69.0437
511.9000	68.9998
511.8000	68.9595
511.7000	68.922
511.6000	68.8876
511.5000	68.8543
511.4000	68.8196
511.3000	68.792
511.2000	68.7707
511.1000	68.7501
511.0000	68.7327
510.9000	68.7194
510.8000	68.7055
510.7000	68.6951
510.6000	68.689
510.5000	68.6909
510.4000	68.689
510.3000	68.6896
510.2000	68.6935
510.1000	68.7028
510.0000	68.7141
509.9000	68.7233
509.8000	68.74
509.7000	68.7535
509.6000	68.7685
509.5000	68.7807
509.4000	68.7967
509.3000	68.8132
509.2000	68.8318
509.1000	68.8495
509.0000	68.8648
508.9000	68.8798
508.8000	68.8948
508.7000	68.9109
508.6000	68.9203
508.5000	68.9288
508.4000	68.935
508.3000	68.9449
508.2000	68.9467
508.1000	68.9483
508.0000	68.942
507.9000	68.9377
507.8000	68.9294
507.7000	68.9163
507.6000	68.8995
507.5000	68.8796
507.4000	68.8574
507.3000	68.8298
507.2000	68.8004
507.1000	68.7652
507.0000	68.7318
506.9000	68.6909
506.8000	68.6451
506.7000	68.5947
506.6000	68.5453
506.5000	68.4926
506.4000	68.4376
506.3000	68.3821
506.2000	68.3222
506.1000	68.2578
506.0000	68.196
505.9000	68.1326
505.8000	68.0693
505.7000	68.0048
505.6000	67.9376
505.5000	67.8719
505.4000	67.8033
505.3000	67.7394
505.2000	67.6758
505.1000	67.6148
505.0000	67.5551
504.9000	67.4938
504.8000	67.4383
504.7000	67.3816
504.6000	67.3331
504.5000	67.2824
504.4000	67.2342
504.3000	67.1928
504.2000	67.1511
504.1000	67.1151
504.0000	67.0834
503.9000	67.0545
503.8000	67.0316
503.7000	67.0067
503.6000	66.9878
503.5000	66.9726
503.4000	66.9572
503.3000	66.9526
503.2000	66.9471
503.1000	66.9435
503.0000	66.943
502.9000	66.9486
502.8000	66.9537
502.7000	66.9597
502.6000	66.9701
502.5000	66.9787
502.4000	66.9926
502.3000	67.0053
502.2000	67.0186
502.1000	67.0349
502.0000	67.0516
501.9000	67.0675
501.8000	67.0842
501.7000	67.0985
501.6000	67.1105
501.5000	67.1254
501.4000	67.1323
501.3000	67.1403
501.2000	67.1491
501.1000	67.1531
501.0000	67.1532
500.9000	67.1521
500.8000	67.1454
500.7000	67.142
500.6000	67.1343
500.5000	67.1182
500.4000	67.1011
500.3000	67.0768
500.2000	67.0536
500.1000	67.0234
500.0000	66.994
499.9000	66.9583
499.8000	66.9253
499.7000	66.8857
499.6000	66.8411
499.5000	66.7935
499.4000	66.749
499.3000	66.702
499.2000	66.6502
499.1000	66.5953
499.0000	66.5387
498.9000	66.4845
498.8000	66.4265
498.7000	66.3702
498.6000	66.3143
498.5000	66.2568
498.4000	66.1982
498.3000	66.14
498.2000	66.079
498.1000	66.0259
498.0000	65.9727
497.9000	65.9223
497.8000	65.8702
497.7000	65.8201
497.6000	65.776
497.5000	65.733
497.4000	65.6886
497.3000	65.65
497.2000	65.616
497.1000	65.5851
497.0000	65.5538
496.9000	65.5282
496.8000	65.5066
496.7000	65.4886
496.6000	65.4751
496.5000	65.4603
496.4000	65.4504
496.3000	65.4474
496.2000	65.4443
496.1000	65.4459
496.0000	65.4517
495.9000	65.4573
495.8000	65.47
495.7000	65.4841
495.6000	65.4988
495.5000	65.5145
495.4000	65.5341
495.3000	65.5538
495.2000	65.5743
495.1000	65.5946
495.0000	65.6205
494.9000	65.6447
494.8000	65.6684
494.7000	65.6931
494.6000	65.7173
494.5000	65.7428
494.4000	65.7654
494.3000	65.7882
494.2000	65.8099
494.1000	65.8321
494.0000	65.8511
493.9000	65.8684
493.8000	65.8817
493.7000	65.894
493.6000	65.905
493.5000	65.9192
493.4000	65.9192
493.3000	65.9242
493.2000	65.9274
493.1000	65.9284
493.0000	65.9211
492.9000	65.9123
492.8000	65.9004
492.7000	65.8845
492.6000	65.8668
492.5000	65.8426
492.4000	65.8173
492.3000	65.7935
492.2000	65.7699
492.1000	65.7432
492.0000	65.7131
491.9000	65.679
491.8000	65.6512
491.7000	65.6189
491.6000	65.5834
491.5000	65.5444
491.4000	65.5158
491.3000	65.4801
491.2000	65.4483
491.1000	65.4205
491.0000	65.3922
490.9000	65.3664
490.8000	65.3406
490.7000	65.3168
490.6000	65.2934
490.5000	65.2735
490.4000	65.2559
490.3000	65.2419
490.2000	65.2288
490.1000	65.2203
490.0000	65.2133
489.9000	65.2097
489.8000	65.2076
489.7000	65.2125
489.6000	65.2179
489.5000	65.2249
489.4000	65.2332
489.3000	65.245
489.2000	65.2605
489.1000	65.2761
489.0000	65.292
488.9000	65.3123
488.8000	65.339
488.7000	65.3652
488.6000	65.3926
488.5000	65.4161
488.4000	65.446
488.3000	65.4769
488.2000	65.5084
488.1000	65.5365
488.0000	65.5643
487.9000	65.5948
487.8000	65.6257
487.7000	65.6578
487.6000	65.6883
487.5000	65.7187
487.4000	65.7511
487.3000	65.7766
487.2000	65.7975
487.1000	65.8219
487.0000	65.8419
486.9000	65.8653
486.8000	65.8856
486.7000	65.9053
486.6000	65.9178
486.5000	65.9338
486.4000	65.9478
486.3000	65.9571
486.2000	65.9666
486.1000	65.9706
486.0000	65.9757
485.9000	65.9795
485.8000	65.9792
485.7000	65.9811
485.6000	65.9778
485.5000	65.9721
485.4000	65.9669
485.3000	65.9608
485.2000	65.9579
485.1000	65.9481
485.0000	65.9433
484.9000	65.9367
484.8000	65.9282
484.7000	65.9196
484.6000	65.9107
484.5000	65.9049
484.4000	65.8969
484.3000	65.8872
484.2000	65.8808
484.1000	65.8753
484.0000	65.876
483.9000	65.8764
483.8000	65.8776
483.7000	65.8764
483.6000	65.8735
483.5000	65.8772
483.4000	65.8791
483.3000	65.8834
483.2000	65.891
483.1000	65.9011
483.0000	65.9094
482.9000	65.9218
482.8000	65.9338
482.7000	65.9471
482.6000	65.9626
482.5000	65.978
482.4000	65.9924
482.3000	66.008
482.2000	66.0254
482.1000	66.0472
482.0000	66.0704
481.9000	66.09
481.8000	66.1115
481.7000	66.1323
481.6000	66.1495
481.5000	66.1663
481.4000	66.1853
481.3000	66.201
481.2000	66.2195
481.1000	66.2398
481.0000	66.2558
480.9000	66.2744
480.8000	66.2882
480.7000	66.302
480.6000	66.3136
480.5000	66.324
480.4000	66.3327
480.3000	66.3394
480.2000	66.3432
480.1000	66.3455
480.0000	66.3522
479.9000	66.3557
479.8000	66.3562
479.7000	66.3589
479.6000	66.3557
479.5000	66.3544
479.4000	66.3531
479.3000	66.3488
479.2000	66.3462
479.1000	66.3393
479.0000	66.3352
478.9000	66.3284
478.8000	66.318
478.7000	66.3094
478.6000	66.305
478.5000	66.3039
478.4000	66.2957
478.3000	66.2897
478.2000	66.2848
478.1000	66.2787
478.0000	66.2752
477.9000	66.2683
477.8000	66.2625
477.7000	66.26
477.6000	66.2598
477.5000	66.2565
477.4000	66.2502
477.3000	66.2506
477.2000	66.2521
477.1000	66.2519
477.0000	66.2467
476.9000	66.2437
476.8000	66.2444
476.7000	66.2428
476.6000	66.2444
476.5000	66.2438
476.4000	66.2453
476.3000	66.2436
476.2000	66.2426
476.1000	66.2388
476.0000	66.235
475.9000	66.2314
475.8000	66.2319
475.7000	66.2229
475.6000	66.2145
475.5000	66.2077
475.4000	66.205
475.3000	66.1986
475.2000	66.1888
475.1000	66.1816
475.0000	66.171
474.9000	66.1594
474.8000	66.1457
474.7000	66.1332
474.6000	66.1158
474.5000	66.0979
474.4000	66.0782
474.3000	66.0595
474.2000	66.0424
474.1000	66.0272
474.0000	66.0092
473.9000	65.9877
473.8000	65.966
473.7000	65.939
473.6000	65.9186
473.5000	65.8952
473.4000	65.8686
473.3000	65.8466
473.2000	65.8193
473.1000	65.7949
473.0000	65.7734
472.9000	65.7498
472.8000	65.7297
472.7000	65.7078
472.6000	65.684
472.5000	65.6568
472.4000	65.6354
472.3000	65.6144
472.2000	65.5887
472.1000	65.5658
472.0000	65.5404
471.9000	65.5172
471.8000	65.4982
471.7000	65.4711
471.6000	65.4519
471.5000	65.4319
471.4000	65.407
471.3000	65.3888
471.2000	65.3662
471.1000	65.3485
471.0000	65.3289
470.9000	65.3126
470.8000	65.2931
470.7000	65.2749
470.6000	65.2574
470.5000	65.2411
470.4000	65.2241
470.3000	65.2057
470.2000	65.1848
470.1000	65.168
470.0000	65.1475
469.9000	65.1236
469.8000	65.1019
469.7000	65.0784
469.6000	65.0567
469.5000	65.0335
469.4000	65.0081
469.3000	64.9787
469.2000	64.95
469.1000	64.9206
469.0000	64.892
468.9000	64.8619
468.8000	64.831
468.7000	64.796
468.6000	64.7609
468.5000	64.7258
468.4000	64.6898
468.3000	64.6557
468.2000	64.6201
468.1000	64.583
468.0000	64.5416
467.9000	64.5003
467.8000	64.4588
467.7000	64.4233
467.6000	64.3807
467.5000	64.3418
467.4000	64.2989
467.3000	64.2575
467.2000	64.216
467.1000	64.1793
467.0000	64.142
466.9000	64.1011
466.8000	64.0642
466.7000	64.0237
466.6000	63.9873
466.5000	63.9474
466.4000	63.9156
466.3000	63.8795
466.2000	63.8452
466.1000	63.8072
466.0000	63.7736
465.9000	63.739
465.8000	63.709
465.7000	63.6775
465.6000	63.6473
465.5000	63.6137
465.4000	63.5864
465.3000	63.5595
465.2000	63.5318
465.1000	63.507
465.0000	63.4829
464.9000	63.462
464.8000	63.4353
464.7000	63.4104
464.6000	63.3846
464.5000	63.3617
464.4000	63.3405
464.3000	63.3182
464.2000	63.2939
464.1000	63.27
464.0000	63.2452
463.9000	63.2235
463.8000	63.1984
463.7000	63.1716
463.6000	63.1459
463.5000	63.1198
463.4000	63.0939
463.3000	63.0646
463.2000	63.0346
463.1000	63.0084
463.0000	62.9809
462.9000	62.95
462.8000	62.9198
462.7000	62.8872
462.6000	62.8545
462.5000	62.8249
462.4000	62.7902
462.3000	62.757
462.2000	62.7259
462.1000	62.696
462.0000	62.6646
461.9000	62.6299
461.8000	62.5933
461.7000	62.5606
461.6000	62.5266
461.5000	62.4917
461.4000	62.4556
461.3000	62.4229
461.2000	62.3913
461.1000	62.3617
461.0000	62.3339
460.9000	62.3027
460.8000	62.2772
460.7000	62.2489
460.6000	62.2166
460.5000	62.1912
460.4000	62.1612
460.3000	62.1372
460.2000	62.1146
460.1000	62.0891
460.0000	62.07
459.9000	62.0494
459.8000	62.0315
459.7000	62.0117
459.6000	61.9942
459.5000	61.9779
459.4000	61.9615
459.3000	61.947
459.2000	61.9311
459.1000	61.9166
459.0000	61.9036
458.9000	61.8854
458.8000	61.8748
458.7000	61.8614
458.6000	61.8483
458.5000	61.8354
458.4000	61.8213
458.3000	61.8095
458.2000	61.7929
458.1000	61.7816
458.0000	61.7693
457.9000	61.7552
457.8000	61.7396
457.7000	61.7223
457.6000	61.7074
457.5000	61.6928
457.4000	61.6776
457.3000	61.6656
457.2000	61.651
457.1000	61.6403
457.0000	61.6267
456.9000	61.6119
456.8000	61.5984
456.7000	61.584
456.6000	61.5732
456.5000	61.559
456.4000	61.5443
456.3000	61.5304
456.2000	61.5155
456.1000	61.5029
456.0000	61.4913
455.9000	61.4818
455.8000	61.4729
455.7000	61.4622
455.6000	61.4497
455.5000	61.4429
455.4000	61.433
455.3000	61.4249
455.2000	61.4191
455.1000	61.4101
455.0000	61.4036
454.9000	61.3954
454.8000	61.3885
454.7000	61.382
454.6000	61.3794
454.5000	61.3807
454.4000	61.3775
454.3000	61.3702
454.2000	61.3689
454.1000	61.3683
454.0000	61.3658
453.9000	61.3586
453.8000	61.3581
453.7000	61.3538
453.6000	61.3473
453.5000	61.3478
453.4000	61.3466
453.3000	61.3486
453.2000	61.3458
453.1000	61.3432
453.0000	61.3393
452.9000	61.3332
452.8000	61.3291
452.7000	61.3293
452.6000	61.3209
452.5000	61.3167
452.4000	61.3143
452.3000	61.309
452.2000	61.3017
452.1000	61.301
452.0000	61.2968
451.9000	61.2897
451.8000	61.2871
451.7000	61.2833
451.6000	61.276
451.5000	61.2719
451.4000	61.2651
451.3000	61.2598
451.2000	61.2596
451.1000	61.2536
451.0000	61.254
450.9000	61.249
450.8000	61.2448
450.7000	61.2432
450.6000	61.2457
450.5000	61.2458
450.4000	61.2461
450.3000	61.2473
450.2000	61.2461
450.1000	61.2447
450.0000	61.2475
449.9000	61.2504
449.8000	61.2586
449.7000	61.2628
449.6000	61.2656
449.5000	61.272
449.4000	61.2744
449.3000	61.2794
449.2000	61.2849
449.1000	61.2889
449.0000	61.2917
448.9000	61.2924
448.8000	61.2937
448.7000	61.2965
448.6000	61.2979
448.5000	61.3022
448.4000	61.3061
448.3000	61.3075
448.2000	61.303
448.1000	61.301
448.0000	61.2933
447.9000	61.2845
447.8000	61.2796
447.7000	61.2747
447.6000	61.2673
447.5000	61.2563
447.4000	61.2459
447.3000	61.2381
447.2000	61.2242
447.1000	61.2092
447.0000	61.1988
446.9000	61.1805
446.8000	61.1626
446.7000	61.1441
446.6000	61.1307
446.5000	61.1133
446.4000	61.0974
446.3000	61.0834
446.2000	61.0669
446.1000	61.0495
446.0000	61.0375
445.9000	61.0229
445.8000	61.0081
445.7000	60.9911
445.6000	60.9797
445.5000	60.9663
445.4000	60.9502
445.3000	60.9353
445.2000	60.9257
445.1000	60.9174
445.0000	60.9039
444.9000	60.8924
444.8000	60.8835
444.7000	60.8739
444.6000	60.8627
444.5000	60.8504
444.4000	60.8327
444.3000	60.8207
444.2000	60.8113
444.1000	60.7984
444.0000	60.7884
443.9000	60.7764
443.8000	60.7635
443.7000	60.7528
443.6000	60.7363
443.5000	60.7191
443.4000	60.7032
443.3000	60.6868
443.2000	60.6652
443.1000	60.6435
443.0000	60.62
442.9000	60.5996
442.8000	60.5763
442.7000	60.5505
442.6000	60.5189
442.5000	60.4911
442.4000	60.4607
442.3000	60.4264
442.2000	60.3908
442.1000	60.3537
442.0000	60.3161
441.9000	60.2775
441.8000	60.2394
441.7000	60.1994
441.6000	60.1636
441.5000	60.1243
441.4000	60.0881
441.3000	60.0434
441.2000	60.0027
441.1000	59.9652
441.0000	59.9273
440.9000	59.8863
440.8000	59.8459
440.7000	59.8099
440.6000	59.7707
440.5000	59.7333
440.4000	59.6978
440.3000	59.6622
440.2000	59.6293
440.1000	59.5959
440.0000	59.5594
439.9000	59.5255
439.8000	59.4899
439.7000	59.4591
439.6000	59.428
439.5000	59.395
439.4000	59.3605
439.3000	59.329
439.2000	59.2978
439.1000	59.2627
439.0000	59.2294
438.9000	59.1974
438.8000	59.1638
438.7000	59.1271
438.6000	59.0868
438.5000	59.0471
438.4000	59.0074
438.3000	58.9655
438.2000	58.9231
438.1000	58.8829
438.0000	58.8372
437.9000	58.7915
437.8000	58.7453
437.7000	58.7007
437.6000	58.6525
437.5000	58.6056
437.4000	58.5597
437.3000	58.5057
437.2000	58.4515
437.1000	58.4026
437.0000	58.352
436.9000	58.3
436.8000	58.246
436.7000	58.1969
436.6000	58.1462
436.5000	58.09
436.4000	58.0385
436.3000	57.987
436.2000	57.937
436.1000	57.8836
436.0000	57.8302
435.9000	57.7775
435.8000	57.7265
435.7000	57.6825
435.6000	57.6365
435.5000	57.5865
435.4000	57.541
435.3000	57.4967
435.2000	57.4562
435.1000	57.4101
435.0000	57.3648
434.9000	57.3215
434.8000	57.2803
434.7000	57.2407
434.6000	57.1993
434.5000	57.1566
434.4000	57.116
434.3000	57.0774
434.2000	57.0366
434.1000	56.9927
434.0000	56.9532
433.9000	56.9143
433.8000	56.8711
433.7000	56.8271
433.6000	56.7845
433.5000	56.7419
433.4000	56.6996
433.3000	56.656
433.2000	56.614
433.1000	56.5665
433.0000	56.5185
432.9000	56.4734
432.8000	56.4269
432.7000	56.377
432.6000	56.3268
432.5000	56.2792
432.4000	56.2309
432.3000	56.1796
432.2000	56.1288
432.1000	56.0802
432.0000	56.0294
431.9000	55.9802
431.8000	55.9339
431.7000	55.8857
431.6000	55.8355
431.5000	55.7879
431.4000	55.7436
431.3000	55.6994
431.2000	55.655
431.1000	55.6135
431.0000	55.5722
430.9000	55.5292
430.8000	55.4842
430.7000	55.445
430.6000	55.408
430.5000	55.3679
430.4000	55.3313
430.3000	55.2933
430.2000	55.2566
430.1000	55.2223
430.0000	55.1844
429.9000	55.1474
429.8000	55.1133
429.7000	55.0779
429.6000	55.0414
429.5000	55.0042
429.4000	54.9697
429.3000	54.9367
429.2000	54.9048
429.1000	54.869
429.0000	54.8295
428.9000	54.7935
428.8000	54.7561
428.7000	54.7197
428.6000	54.6783
428.5000	54.6407
428.4000	54.6032
428.3000	54.5664
428.2000	54.5275
428.1000	54.4884
428.0000	54.4489
427.9000	54.4116
427.8000	54.3732
427.7000	54.3297
427.6000	54.288
427.5000	54.249
427.4000	54.2113
427.3000	54.17
427.2000	54.1311
427.1000	54.0901
427.0000	54.0526
426.9000	54.0117
426.8000	53.9757
426.7000	53.9383
426.6000	53.9011
426.5000	53.8636
426.4000	53.8292
426.3000	53.7932
426.2000	53.7576
426.1000	53.7268
426.0000	53.6935
425.9000	53.6592
425.8000	53.629
425.7000	53.6012
425.6000	53.5712
425.5000	53.5434
425.4000	53.5162
425.3000	53.4885
425.2000	53.4617
425.1000	53.4356
425.0000	53.4065
424.9000	53.382
424.8000	53.3536
424.7000	53.3275
424.6000	53.3
424.5000	53.2719
424.4000	53.2458
424.3000	53.217
424.2000	53.1892
424.1000	53.1568
424.0000	53.1281
423.9000	53.0974
423.8000	53.0664
423.7000	53.0358
423.6000	53.0026
423.5000	52.9717
423.4000	52.9416
423.3000	52.9065
423.2000	52.877
423.1000	52.845
423.0000	52.8109
422.9000	52.7777
422.8000	52.7447
422.7000	52.7122
422.6000	52.6792
422.5000	52.6514
422.4000	52.6165
422.3000	52.5885
422.2000	52.5571
422.1000	52.5292
422.0000	52.4971
421.9000	52.4645
421.8000	52.433
421.7000	52.4019
421.6000	52.3718
421.5000	52.3414
421.4000	52.3117
421.3000	52.2826
421.2000	52.2539
421.1000	52.2249
421.0000	52.1949
420.9000	52.1655
420.8000	52.1371
420.7000	52.1009
420.6000	52.0687
420.5000	52.0356
420.4000	52.0049
420.3000	51.9749
420.2000	51.9405
420.1000	51.9109
420.0000	52.1107
419.9000	52.0732
419.8000	52.0402
419.7000	52.0063
419.6000	51.9683
419.5000	51.9317
419.4000	51.8906
419.3000	51.8537
419.2000	51.8139
419.1000	51.7757
419.0000	51.735
418.9000	51.6962
418.8000	51.6557
418.7000	51.6135
418.6000	51.5673
418.5000	51.5238
418.4000	51.479
418.3000	51.4363
418.2000	51.386
418.1000	51.339
418.0000	51.2955
417.9000	51.2469
417.8000	51.1995
417.7000	51.148
417.6000	51.1005
417.5000	51.049
417.4000	50.9984
417.3000	50.9458
417.2000	50.8948
417.1000	50.8378
417.0000	50.7838
416.9000	50.7292
416.8000	50.6733
416.7000	50.6153
416.6000	50.5593
416.5000	50.5003
416.4000	50.4392
416.3000	50.379
416.2000	50.3238
416.1000	50.2643
416.0000	50.2049
415.9000	50.1445
415.8000	50.0829
415.7000	50.0244
415.6000	49.963
415.5000	49.9025
415.4000	49.8407
415.3000	49.7782
415.2000	49.7142
415.1000	49.6499
415.0000	49.5899
414.9000	49.5284
414.8000	49.4632
414.7000	49.4014
414.6000	49.3376
414.5000	49.2732
414.4000	49.2095
414.3000	49.1439
414.2000	49.0811
414.1000	49.0157
414.0000	48.9486
413.9000	48.883
413.8000	48.8186
413.7000	48.751
413.6000	48.6852
413.5000	48.6181
413.4000	48.5483
413.3000	48.4788
413.2000	48.4128
413.1000	48.3417
413.0000	48.2678
412.9000	48.2
412.8000	48.1263
412.7000	48.0546
412.6000	47.9829
412.5000	47.9081
412.4000	47.8353
412.3000	47.7623
412.2000	47.6885
412.1000	47.6159
412.0000	47.5422
411.9000	47.4656
411.8000	47.3924
411.7000	47.3216
411.6000	47.247
411.5000	47.175
411.4000	47.1036
411.3000	47.0295
411.2000	46.9578
411.1000	46.888
411.0000	46.8117
410.9000	46.7375
410.8000	46.6645
410.7000	46.5933
410.6000	46.5222
410.5000	46.4519
410.4000	46.3784
410.3000	46.3091
410.2000	46.238
410.1000	46.1649
410.0000	46.0928
409.9000	46.016
409.8000	45.9415
409.7000	45.8697
409.6000	45.7953
409.5000	45.7215
409.4000	45.6492
409.3000	45.5757
409.2000	45.4997
409.1000	45.421
409.0000	45.3456
408.9000	45.2655
408.8000	45.1901
408.7000	45.1153
408.6000	45.0382
408.5000	44.9595
408.4000	44.881
408.3000	44.8103
408.2000	44.732
408.1000	44.6536
408.0000	44.5797
407.9000	44.5048
407.8000	44.4298
407.7000	44.356
407.6000	44.2873
407.5000	44.214
407.4000	44.1357
407.3000	44.0677
407.2000	43.9943
407.1000	43.9209
407.0000	43.8465
406.9000	43.7761
406.8000	43.7056
406.7000	43.6299
406.6000	43.5596
406.5000	43.4868
406.4000	43.4143
406.3000	43.3403
406.2000	43.2684
406.1000	43.1948
406.0000	43.1211
405.9000	43.0505
405.8000	42.9852
405.7000	42.9112
405.6000	42.8393
405.5000	42.7666
405.4000	42.6951
405.3000	42.6244
405.2000	42.5543
405.1000	42.4838
405.0000	42.4133
404.9000	42.3455
404.8000	42.2745
404.7000	42.2042
404.6000	42.1358
404.5000	42.0709
404.4000	41.9992
404.3000	41.9316
404.2000	41.8571
404.1000	41.7914
404.0000	41.726
403.9000	41.6598
403.8000	41.5951
403.7000	41.5279
403.6000	41.4622
403.5000	41.3965
403.4000	41.3307
403.3000	41.2623
403.2000	41.1989
403.1000	41.1346
403.0000	41.0698
402.9000	41.0006
402.8000	40.9368
402.7000	40.8688
402.6000	40.8027
402.5000	40.733
402.4000	40.666
402.3000	40.5958
402.2000	40.5261
402.1000	40.4563
402.0000	40.3837
401.9000	40.3145
401.8000	40.2459
401.7000	40.1768
401.6000	40.1052
401.5000	40.0356
401.4000	39.964
401.3000	39.8948
401.2000	39.8229
401.1000	39.7553
401.0000	39.6887
400.9000	39.619
400.8000	39.5495
400.7000	39.4845
400.6000	39.4157
400.5000	39.3488
400.4000	39.2814
400.3000	39.2115
400.2000	39.1441
400.1000	39.0755
400.0000	39.007
399.9000	38.9379
399.8000	38.8694
399.7000	38.8
399.6000	38.7318
399.5000	38.6593
399.4000	38.589
399.3000	38.5185
399.2000	38.4482
399.1000	38.3753
399.0000	38.3052
398.9000	38.2307
398.8000	38.1587
398.7000	38.0868
398.6000	38.0112
398.5000	37.9346
398.4000	37.8597
398.3000	37.7828
398.2000	37.7065
398.1000	37.632
398.0000	37.557
397.9000	37.4826
397.8000	37.4059
397.7000	37.3285
397.6000	37.2498
397.5000	37.1735
397.4000	37.0957
397.3000	37.0205
397.2000	36.947
397.1000	36.8722
397.0000	36.7967
396.9000	36.7241
396.8000	36.6481
396.7000	36.5737
396.6000	36.4968
396.5000	36.4193
396.4000	36.3396
396.3000	36.2608
396.2000	36.1828
396.1000	36.1051
396.0000	36.0267
395.9000	35.9435
395.8000	35.8633
395.7000	35.7799
395.6000	35.6965
395.5000	35.6107
395.4000	35.5273
395.3000	35.4428
395.2000	35.3582
395.1000	35.2719
395.0000	35.1869
394.9000	35.1013
394.8000	35.0164
394.7000	34.93
394.6000	34.8442
394.5000	34.7561
394.4000	34.6692
394.3000	34.5837
394.2000	34.4957
394.1000	34.4089
394.0000	34.3197
393.9000	34.2343
393.8000	34.1454
393.7000	34.0573
393.6000	33.97
393.5000	33.8808
393.4000	33.7935
393.3000	33.7046
393.2000	33.618
393.1000	33.5311
393.0000	33.4399
392.9000	33.3514
392.8000	33.2617
392.7000	33.1691
392.6000	33.0772
392.5000	32.9859
392.4000	32.893
392.3000	32.8001
392.2000	32.7058
392.1000	32.614
392.0000	32.52
391.9000	32.4275
391.8000	32.3315
391.7000	32.2371
391.6000	32.1412
391.5000	32.0456
391.4000	31.9505
391.3000	31.8557
391.2000	31.763
391.1000	31.6696
391.0000	31.5747
390.9000	31.4811
390.8000	31.3867
390.7000	31.2911
390.6000	31.1964
390.5000	31.0972
390.4000	31.002
390.3000	30.9041
390.2000	30.8109
390.1000	30.716
390.0000	30.6168
389.9000	30.5204
389.8000	30.4233
389.7000	30.3269
389.6000	30.2274
389.5000	30.1327
389.4000	30.0363
389.3000	29.9365
389.2000	29.8393
389.1000	29.7425
389.0000	29.6453
388.9000	29.55
388.8000	29.4515
388.7000	29.3581
388.6000	29.2588
388.5000	29.1607
388.4000	29.0655
388.3000	28.9691
388.2000	28.8745
388.1000	28.7784
388.0000	28.679
387.9000	28.5824
387.8000	28.4871
387.7000	28.3931
387.6000	28.2982
387.5000	28.2014
387.4000	28.1094
387.3000	28.0141
387.2000	27.9191
387.1000	27.8208
387.0000	27.7237
386.9000	27.627
386.8000	27.5331
386.7000	27.4361
386.6000	27.3387
386.5000	27.2431
386.4000	27.1504
386.3000	27.0538
386.2000	26.9595
386.1000	26.8667
386.0000	26.7707
385.9000	26.6767
385.8000	26.5777
385.7000	26.485
385.6000	26.3908
385.5000	26.2971
385.4000	26.206
385.3000	26.1142
385.2000	26.0204
385.1000	25.9258
385.0000	25.8345
384.9000	25.7418
384.8000	25.6475
384.7000	25.5542
384.6000	25.4611
384.5000	25.3666
384.4000	25.2743
384.3000	25.1816
384.2000	25.0907
384.1000	24.9983
384.0000	24.9069
383.9000	24.8181
383.8000	24.7255
383.7000	24.6341
383.6000	24.5422
383.5000	24.4523
383.4000	24.3588
383.3000	24.267
383.2000	24.1764
383.1000	24.0874
383.0000	23.9966
382.9000	23.9063
382.8000	23.814
382.7000	23.7227
382.6000	23.6338
382.5000	23.5447
382.4000	23.4533
382.3000	23.3595
382.2000	23.2699
382.1000	23.1779
382.0000	23.0877
381.9000	22.9944
381.8000	22.9042
381.7000	22.8118
381.6000	22.7222
381.5000	22.6292
381.4000	22.5356
381.3000	22.4428
381.2000	22.3539
381.1000	22.2631
381.0000	22.1705
380.9000	22.0777
380.8000	21.9879
380.7000	21.8972
380.6000	21.805
380.5000	21.7154
380.4000	21.6212
380.3000	21.5318
380.2000	21.439
380.1000	21.348
380.0000	21.2553
379.9000	21.1648
379.8000	21.0733
379.7000	20.9817
379.6000	20.8881
379.5000	20.7971
379.4000	20.7057
379.3000	20.6104
379.2000	20.5155
379.1000	20.4209
379.0000	20.3272
378.9000	20.2304
378.8000	20.1357
378.7000	20.0407
378.6000	19.9463
378.5000	19.8512
378.4000	19.7558
378.3000	19.6594
378.2000	19.5628
378.1000	19.4657
378.0000	19.3681
377.9000	19.2683
377.8000	19.1681
377.7000	19.0718
377.6000	18.9737
377.5000	18.8758
377.4000	18.7753
377.3000	18.6775
377.2000	18.5782
377.1000	18.4775
377.0000	18.3755
376.9000	18.2735
376.8000	18.1711
376.7000	18.0661
376.6000	17.9648
376.5000	17.8611
376.4000	17.7587
376.3000	17.6538
376.2000	17.5492
376.1000	17.4415
376.0000	17.3343
375.9000	17.2253
375.8000	17.1154
375.7000	17.0042
375.6000	16.8936
375.5000	16.7808
375.4000	16.6692
375.3000	16.5554
375.2000	16.4399
375.1000	16.3253
375.0000	16.2061
374.9000	16.0876
374.8000	15.9644
374.7000	15.8438
374.6000	15.7221
374.5000	15.5988
374.4000	15.4728
374.3000	15.3447
374.2000	15.2171
374.1000	15.087
374.0000	14.9536
373.9000	14.8204
373.8000	14.6835
373.7000	14.5471
373.6000	14.4094
373.5000	14.27
373.4000	14.1278
373.3000	13.9859
373.2000	13.8413
373.1000	13.6948
373.0000	13.5461
372.9000	13.3954
372.8000	13.2442
372.7000	13.0934
372.6000	12.9389
372.5000	12.7833
372.4000	12.6256
372.3000	12.4662
372.2000	12.307
372.1000	12.1443
372.0000	11.9803
371.9000	11.8148
371.8000	11.649
371.7000	11.4815
371.6000	11.3129
371.5000	11.1417
371.4000	10.9687
371.3000	10.7948
371.2000	10.6192
371.1000	10.4405
371.0000	10.2625
370.9000	10.0831
370.8000	9.9046
370.7000	9.72351
370.6000	9.54011
370.5000	9.35786
370.4000	9.17493
370.3000	8.98925
370.2000	8.805
370.1000	8.61864
370.0000	7.87492
369.9000	7.68842
369.8000	7.50361
369.7000	7.32116
369.6000	7.1374
369.5000	6.95204
369.4000	6.76957
369.3000	6.58657
369.2000	6.40597
369.1000	6.22536
369.0000	6.04601
368.9000	5.86658
368.8000	5.68943
368.7000	5.51575
368.6000	5.34255
368.5000	5.17161
368.4000	5.00175
368.3000	4.83564
368.2000	4.67113
368.1000	4.50754
368.0000	4.34618
367.9000	4.18986
367.8000	4.03495
367.7000	3.88331
367.6000	3.73358
367.5000	3.58684
367.4000	3.44444
367.3000	3.30409
367.2000	3.16582
367.1000	3.03128
367.0000	2.89966
366.9000	2.77092
366.8000	2.64599
366.7000	2.52466
366.6000	2.40709
366.5000	2.29203
366.4000	2.18091
366.3000	2.07273
366.2000	1.96763
366.1000	1.8657
366.0000	1.76759
365.9000	1.67315
365.8000	1.58158
365.7000	1.49317
365.6000	1.40785
365.5000	1.32565
365.4000	1.24715
365.3000	1.17222
365.2000	1.09991
365.1000	1.03047
365.0000	0.963632
364.9000	0.900411
364.8000	0.839418
364.7000	0.781915
364.6000	0.727159
364.5000	0.674631
364.4000	0.624445
364.3000	0.57704
364.2000	0.532426
364.1000	0.490992
364.0000	0.451444
363.9000	0.414243
363.8000	0.379263
363.7000	0.346616
363.6000	0.315866
363.5000	0.287408
363.4000	0.261059
363.3000	0.236403
363.2000	0.213686
363.1000	0.192339
363.0000	0.17268
362.9000	0.154569
362.8000	0.138462
362.7000	0.123382
362.6000	0.109743
362.5000	0.0972229
362.4000	0.0858497
362.3000	0.0755205
362.2000	0.0661702
362.1000	0.0578756
362.0000	0.0503417
361.9000	0.0437194
361.8000	0.0378368
361.7000	0.0325958
361.6000	0.0280399
361.5000	0.0239492
361.4000	0.020407
361.3000	0.0173577
361.2000	0.0146041
361.1000	0.0123428
361.0000	0.0103008
360.9000	0.0085815
360.8000	0.00721073
360.7000	0.00606354
360.6000	0.00496523
360.5000	0.0040886
360.4000	0.00338851
360.3000	0.00273158
360.2000	0.00224487
360.1000	0.00175794
360.0000	0.001441
359.9000	0.00119773
359.8000	0.000978298
359.7000	0.000783418
359.6000	0.000612592
359.5000	0.000515293
359.4000	0.000368811
359.3000	0.00017449
359.2000	5.26372E-005
359.1000	3.58112E-006
359.0000	-6.86211E-005
358.9000	-0.000141696
358.8000	-0.000190581
358.7000	-0.000166596
358.6000	-0.000215535
358.5000	-0.000215649
358.4000	-0.000215128
358.3000	-0.00026399
358.2000	-0.000264438
358.1000	-0.000264827
358.0000	-0.000264394
357.9000	-0.000337276
357.8000	-0.000361324
357.7000	-0.000312819
357.6000	-0.000313158
357.5000	-0.000410464
357.4000	-0.000362342
357.3000	-0.000387288
357.2000	-0.000338245
357.1000	-0.000386976
357.0000	-0.000411468
356.9000	-0.000387414
356.8000	-0.000387306
356.7000	-0.000411598
356.6000	-0.00048468
356.5000	-0.000509206
356.4000	-0.000509413
356.3000	-0.000533325
356.2000	-0.000558193
356.1000	-0.000607806
356.0000	-0.000656996
355.9000	-0.000632362
355.8000	-0.000632567
355.7000	-0.00060787
355.6000	-0.00068091
355.5000	-0.000656717
355.4000	-0.000656468
355.3000	-0.000656552
355.2000	-0.000681359
355.1000	-0.000657409
355.0000	-0.000657499
354.9000	-0.000706174
354.8000	-0.000707026
354.7000	-0.00068368
354.6000	-0.000707565
354.5000	-0.000731435
354.4000	-0.000706666
354.3000	-0.000731685
354.2000	-0.000731655
354.1000	-0.000756141
354.0000	-0.000756887
353.9000	-0.000756856
353.8000	-0.00080554
353.7000	-0.000854559
353.6000	-0.000903013
353.5000	-0.000902685
353.4000	-0.000878295
353.3000	-0.000853959
353.2000	-0.000852895
353.1000	-0.000876884
353.0000	-0.000853035
352.9000	-0.000803856
352.8000	-0.000803776
352.7000	-0.000779649
352.6000	-0.00080477
352.5000	-0.000853388
352.4000	-0.000828131
352.3000	-0.000852382
352.2000	-0.00085297
352.1000	-0.000902037
352.0000	-0.000902404
351.9000	-0.000902752
351.8000	-0.00092717
351.7000	-0.000951604
351.6000	-0.000976202
351.5000	-0.00092785
351.4000	-0.000927392
351.3000	-0.000976602
351.2000	-0.000976985
351.1000	-0.000927963
351.0000	-0.000878857
350.9000	-0.000829788
350.8000	-0.000879525
350.7000	-0.000855056
350.6000	-0.000854712
350.5000	-0.000781656
350.4000	-0.000732426
350.3000	-0.000780944
350.2000	-0.00082938
350.1000	-0.000805418
350.0000	-0.000781195
349.9000	-0.000854001
349.8000	-0.000878851
349.7000	-0.000903167
349.6000	-0.000853721
349.5000	-0.000902187
349.4000	-0.000975196
349.3000	-0.000975818
349.2000	-0.00097573
349.1000	-0.00102512
349.0000	-0.00100134
348.9000	-0.00104993
348.8000	-0.00112312
348.7000	-0.00119605
348.6000	-0.00114794
348.5000	-0.00119678
348.4000	-0.00122161
348.3000	-0.00122221
348.2000	-0.00124607
348.1000	-0.00122191
348.0000	-0.00132054
347.9000	-0.00127212
347.8000	-0.00124753
347.7000	-0.00129623
347.6000	-0.00127186
347.5000	-0.00127137
347.4000	-0.00124693
347.3000	-0.00122254
347.2000	-0.00112532
347.1000	-0.0010524
347.0000	-0.00110132
346.9000	-0.00107613
346.8000	-0.00107544
346.7000	-0.00107504
346.6000	-0.00105091
346.5000	-0.00102653
346.4000	-0.00100186
346.3000	-0.00105003
346.2000	-0.00105059
346.1000	-0.00102605
346.0000	-0.00107481
345.9000	-0.00107467
345.8000	-0.00109923
345.7000	-0.00112359
345.6000	-0.001172
345.5000	-0.00114706
345.4000	-0.00114733
345.3000	-0.00114802
345.2000	-0.00112385
345.1000	-0.00107531
345.0000	-0.00100112
344.9000	-0.00107424
344.8000	-0.00104936
344.7000	-0.00104974
344.6000	-0.00107382
344.5000	-0.00104945
344.4000	-0.00100049
344.3000	-0.0010003
344.2000	-0.000999864
344.1000	-0.000999861
344.0000	-0.00104938
343.9000	-0.00102564
343.8000	-0.00100042
343.7000	-0.000926774
343.6000	-0.000951663
343.5000	-0.000975902
343.4000	-0.00104987
343.3000	-0.00100142
343.2000	-0.000977336
343.1000	-0.000977346
343.0000	-0.000928302
342.9000	-0.000928154
342.8000	-0.000903955
342.7000	-0.000855967
342.6000	-0.000855196
342.5000	-0.000879549
342.4000	-0.000854583
342.3000	-0.000878511
342.2000	-0.00087897
342.1000	-0.00085491
342.0000	-0.000854642
341.9000	-0.000854524
341.8000	-0.000879331
341.7000	-0.000830185
341.6000	-0.000878944
341.5000	-0.000902963
341.4000	-0.000927833
341.3000	-0.000976197
341.2000	-0.00100091
341.1000	-0.00107379
341.0000	-0.00105022
340.9000	-0.00104984
340.8000	-0.00105034
340.7000	-0.00107498
340.6000	-0.00109925
340.5000	-0.00114817
340.4000	-0.00117272
340.3000	-0.00112325
340.2000	-0.00107396
340.1000	-0.00104949
340.0000	0.00477337
339.9000	0.00484738
339.8000	0.00482213
339.7000	0.0048226
339.6000	0.00477152
339.5000	0.00482087
339.4000	0.00479626
339.3000	0.00472045
339.2000	0.00469591
339.1000	0.00474339
339.0000	0.00479252
338.9000	0.00469478
338.8000	0.00459545
338.7000	0.00456867
338.6000	0.00461501
338.5000	0.00461379
338.4000	0.00459075
338.3000	0.00446845
338.2000	0.00449303
338.1000	0.00444319
338.0000	0.00447003
337.9000	0.00442004
337.8000	0.00439452
337.7000	0.00429583
337.6000	0.0043435
337.5000	0.00429403
337.4000	0.00426735
337.3000	0.00426573
337.2000	0.00426545
337.1000	0.00426676
337.0000	0.00421753
336.9000	0.00426642
336.8000	0.00421554
336.7000	0.00416567
336.6000	0.00414162
336.5000	0.00414122
336.4000	0.00416395
336.3000	0.00408964
336.2000	0.00408954
336.1000	0.00413918
336.0000	0.00411473
335.9000	0.0041614
335.8000	0.00421008
335.7000	0.00416196
335.6000	0.00411114
335.5000	0.00413441
335.4000	0.00408569
335.3000	0.00406142
335.2000	0.00408725
335.1000	0.00411204
335.0000	0.0040847
334.9000	0.00413428
334.8000	0.0040844
334.7000	0.00405913
334.6000	0.00405645
334.5000	0.00410512
334.4000	0.00415516
334.3000	0.00405718
334.2000	0.00403341
334.1000	0.0040575
334.0000	0.00410768
333.9000	0.00403453
333.8000	0.00400803
333.7000	0.00395695
333.6000	0.00390691
333.5000	0.00388171
333.4000	0.00390733
333.3000	0.00388151
333.2000	0.00388242
333.1000	0.00383443
333.0000	0.00378622
332.9000	0.00373462
332.8000	0.00375713
332.7000	0.00378265
332.6000	0.00378301
332.5000	0.00378262
332.4000	0.00380501
332.3000	0.00382785
332.2000	0.00382765
332.1000	0.00385356
332.0000	0.00390185
331.9000	0.00389981
331.8000	0.00387231
331.7000	0.00384833
331.6000	0.0038221
331.5000	0.00382283
331.4000	0.00384772
331.3000	0.00384914
331.2000	0.00375026
331.1000	0.00379927
331.0000	0.00367433
330.9000	0.00364863
330.8000	0.00362472
330.7000	0.00357641
330.6000	0.0036242
330.5000	0.00357579
330.4000	0.00352854
330.3000	0.00355239
330.2000	0.00352806
330.1000	0.00347866
330.0000	0.00354997
329.9000	0.00357293
329.8000	0.00352472
329.7000	0.00352485
329.6000	0.00352494
329.5000	0.00345251
329.4000	0.00345136
329.3000	0.00352302
329.2000	0.00347501
329.1000	0.00352261
329.0000	0.00354746
328.9000	0.00354675
328.8000	0.00352064
328.7000	0.003497
328.6000	0.00349791
328.5000	0.00352237
328.4000	0.00349801
328.3000	0.00347378
328.2000	0.00354546
328.1000	0.00349727
328.0000	0.00347286
327.9000	0.00349642
327.8000	0.00359322
327.7000	0.00352143
327.6000	0.00361647
327.5000	0.00359275
327.4000	0.00356785
327.3000	0.00359167
327.2000	0.00361657
327.1000	0.00361773
327.0000	0.00359221
326.9000	0.003544
326.8000	0.0034957
326.7000	0.00354439
326.6000	0.00344838
326.5000	0.00344773
326.4000	0.00344742
326.3000	0.00344711
326.2000	0.00337497
326.1000	0.00335079
326.0000	0.00330299
325.9000	0.00332626
325.8000	0.00334966
325.7000	0.00339774
325.6000	0.00339709
325.5000	0.0033249
325.4000	0.00337195
325.3000	0.00341988
325.2000	0.00341964
325.1000	0.00346669
325.0000	0.00356193
324.9000	0.00361007
324.8000	0.00356216
324.7000	0.00351413
324.6000	0.0035859
324.5000	0.00356165
324.4000	0.00351339
324.3000	0.00348954
324.2000	0.00344182
324.1000	0.00339357
324.0000	0.00329829
323.9000	0.0033459
323.8000	0.00334644
323.7000	0.00336968
323.6000	0.00334613
323.5000	0.00327486
323.4000	0.00310746
323.3000	0.00305904
323.2000	0.00310608
323.1000	0.00310585
323.0000	0.00298582
322.9000	0.0030101
322.8000	0.00301017
322.7000	0.00301007
322.6000	0.00298552
322.5000	0.00293672
322.4000	0.00291205
322.3000	0.00291205
322.2000	0.00284074
322.1000	0.00276891
322.0000	0.0027204
321.9000	0.0026955
321.8000	0.00276714
321.7000	0.00274367
321.6000	0.00272
321.5000	0.00276797
321.4000	0.00281585
321.3000	0.0028395
321.2000	0.00274303
321.1000	0.00271938
321.0000	0.00271996
320.9000	0.00272064
320.8000	0.00284061
320.7000	0.00284069
320.6000	0.00281609
320.5000	0.00281647
320.4000	0.00281661
320.3000	0.00276841
320.2000	0.00284004
320.1000	0.00279175
320.0000	0.00269622
319.9000	0.00267262
319.8000	0.00267195
319.7000	0.00260039
319.6000	0.00264928
319.5000	0.00260087
319.4000	0.0026003
319.3000	0.00264778
319.2000	0.00255185
319.1000	0.00255232
319.0000	0.00257669
318.9000	0.0025763
318.8000	0.00262449
318.7000	0.00264832
318.6000	0.00255263
318.5000	0.00262443
318.4000	0.00272002
318.3000	0.00264801
318.2000	0.00264864
318.1000	0.00269669
318.0000	0.00267198
317.9000	0.00269594
317.8000	0.00260008
317.7000	0.00255212
317.6000	0.00259984
317.5000	0.00259926
317.4000	0.00259879
317.3000	0.00255169
317.2000	0.00252714
317.1000	0.00252734
317.0000	0.00252788
316.9000	0.00250423
316.8000	0.00248104
316.7000	0.00248097
316.6000	0.00250444
316.5000	0.00250413
316.4000	0.00255237
316.3000	0.00252883
316.2000	0.00255278
316.1000	0.00250514
316.0000	0.00240966
315.9000	0.00238567
315.8000	0.00233774
315.7000	0.00236139
315.6000	0.00229011
315.5000	0.00224284
315.4000	0.00224196
315.3000	0.00221718
315.2000	0.00224041
315.1000	0.00224049
315.0000	0.00219337
314.9000	0.00212094
314.8000	0.00209628
314.7000	0.0020478
314.6000	0.00207259
314.5000	0.00207283
314.4000	0.00214446
314.3000	0.00212
314.2000	0.00214347
314.1000	0.00209539
314.0000	0.00211864
313.9000	0.00209415
313.8000	0.00207009
313.7000	0.00209407
313.6000	0.00202183
313.5000	0.00202166
313.4000	0.00199702
313.3000	0.00204529
313.2000	0.0020942
313.1000	0.00218972
313.0000	0.00223646
312.9000	0.00225986
312.8000	0.00225987
312.7000	0.00228475
312.6000	0.00226051
312.5000	0.00233166
312.4000	0.00235606
312.3000	0.00240347
312.2000	0.00245085
312.1000	0.00240294
312.0000	0.00242659
311.9000	0.00242647
311.8000	0.00235557
311.7000	0.002331
311.6000	0.00223487
311.5000	0.00216305
311.4000	0.00211456
311.3000	0.00209024
311.2000	0.00206626
311.1000	0.00196994
311.0000	0.00206613
310.9000	0.00201858
310.8000	0.00199427
310.7000	0.00199438
310.6000	0.00187517
310.5000	0.00187533
310.4000	0.00185182
310.3000	0.00185133
310.2000	0.001898
310.1000	0.00189802
310.0000	0.00192149
309.9000	0.00192082
309.8000	0.00187438
309.7000	0.00189848
309.6000	0.00187402
309.5000	0.00192105
309.4000	0.00182518
309.3000	0.00180091
309.2000	0.00177729
309.1000	0.00180086
309.0000	0.0019203
308.9000	0.00194415
308.8000	0.00194346
308.7000	0.00196744
308.6000	0.00194376
308.5000	0.00194317
308.4000	0.00194304
308.3000	0.00189566
308.2000	0.00191873
308.1000	0.00191844
308.0000	0.0019187
307.9000	0.00189498
307.8000	0.00189441
307.7000	0.00191786
307.6000	0.00194145
307.5000	0.00189372
307.4000	0.00184534
307.3000	0.0017494
307.2000	0.00177363
307.1000	0.00172589
307.0000	0.00170128
306.9000	0.00170129
306.8000	0.00165372
306.7000	0.00170178
306.6000	0.00167797
306.5000	0.00163013
306.4000	0.00162948
306.3000	0.00167665
306.2000	0.00165347
306.1000	0.00165391
306.0000	0.00160601
305.9000	0.00158143
305.8000	0.00155807
305.7000	0.00160533
305.6000	0.0016287
305.5000	0.00162864
305.4000	0.00167667
305.3000	0.00165315
305.2000	0.00170014
305.1000	0.00165187
305.0000	0.00160385
304.9000	0.00167519
304.8000	0.00167556
304.7000	0.00165225
304.6000	0.00165171
304.5000	0.00167485
304.4000	0.00174568
304.3000	0.00174605
304.2000	0.00169825
304.1000	0.00172177
304.0000	0.00165035
303.9000	0.00160264
303.8000	0.00153071
303.7000	0.00143525
303.6000	0.00148246
303.5000	0.00150625
303.4000	0.00160175
303.3000	0.00148276
303.2000	0.00153017
303.1000	0.00152975
303.0000	0.00153002
302.9000	0.00153012
302.8000	0.00150635
302.7000	0.0015532
302.6000	0.00164785
302.5000	0.00167191
302.4000	0.00164827
302.3000	0.00164826
302.2000	0.00169511
302.1000	0.00178982
302.0000	0.00176625
301.9000	0.00181398
301.8000	0.00174208
301.7000	0.00181265
301.6000	0.00174108
301.5000	0.00171684
301.4000	0.00174003
301.3000	0.00166871
301.2000	0.001645
301.1000	0.00164506
301.0000	0.0015735
300.9000	0.00152582
300.8000	0.00154942
300.7000	0.00164357
300.6000	0.00166798
300.5000	0.00164419
300.4000	0.00157265
300.3000	0.00152468
300.2000	0.00150088
300.1000	0.00145417
300.0000	0.0014537
299.9000	0.00150157
299.8000	0.00143024
299.7000	0.00138268
299.6000	0.00138246
299.5000	0.00131184
299.4000	0.00124067
299.3000	0.00121702
299.2000	0.00116929
299.1000	0.00109817
299.0000	0.00105089
298.9000	0.00097971
298.8000	0.00100318
298.7000	0.00100263
298.6000	0.00100242
298.5000	0.0010728
298.4000	0.00109678
298.3000	0.00107256
298.2000	0.00104845
298.1000	0.00119008
298.0000	0.00119039
297.9000	0.00119011
297.8000	0.00126113
297.7000	0.00128415
297.6000	0.00135561
297.5000	0.00135648
297.4000	0.00135589
297.3000	0.00142689
297.2000	0.00140359
297.1000	0.00142749
297.0000	0.00142757
296.9000	0.00135692
296.8000	0.00133282
296.7000	0.00133296
296.6000	0.00138091
296.5000	0.00131023
296.4000	0.00133354
296.3000	0.00133297
296.2000	0.00138036
296.1000	0.00138086
296.0000	0.00133291
295.9000	0.00133192
295.8000	0.0013794
295.7000	0.0014034
295.6000	0.00140386
295.5000	0.00135657
295.4000	0.00140353
295.3000	0.00140333
295.2000	0.00142682
295.1000	0.00142714
295.0000	0.00142645
294.9000	0.00142667
294.8000	0.00133183
294.7000	0.00130886
294.6000	0.00128477
294.5000	0.001261
294.4000	0.00126098
294.3000	0.00128492
294.2000	0.00121442
294.1000	0.00109563
294.0000	0.00107131
293.9000	0.00107121
293.8000	0.00107104
293.7000	0.00109457
293.6000	0.0010473
293.5000	0.000999512
293.4000	0.00095219
293.3000	0.000880803
293.2000	0.00090431
293.1000	0.000951632
293.0000	0.000880775
292.9000	0.000856359
292.8000	0.000903785
292.7000	0.00083248
292.6000	0.000831764
292.5000	0.000879139
292.4000	0.000878968
292.3000	0.000878821
292.2000	0.000854828
292.1000	0.000902498
292.0000	0.000902673
291.9000	0.000855278
291.8000	0.000878661
291.7000	0.000854994
291.6000	0.000831815
291.5000	0.000807632
291.4000	0.000878817
291.3000	0.00090277
291.2000	0.000855404
291.1000	0.000856129
291.0000	0.000809115
290.9000	0.000785178
290.8000	0.000785481
290.7000	0.000738212
290.6000	0.000715279
290.5000	0.000644097
290.4000	0.000691332
290.3000	0.000738703
290.2000	0.000739383
290.1000	0.000833949
290.0000	0.000880522
289.9000	0.000880862
289.8000	0.000833317
289.7000	0.000810034
289.6000	0.000809852
289.5000	0.000856771
289.4000	0.000903982
289.3000	0.000951443
289.2000	0.000974732
289.1000	0.00104586
289.0000	0.00104581
288.9000	0.00104535
288.8000	0.00102201
288.7000	0.000998785
288.6000	0.000998554
288.5000	0.000974994
288.4000	0.000975926
288.3000	0.000952005
288.2000	0.000951795
288.1000	0.000951938
288.0000	0.000952196
287.9000	0.000928669
287.8000	0.000952146
287.7000	0.000951982
287.6000	0.000952832
287.5000	0.000905585
287.4000	0.000905612
287.3000	0.000834649
287.2000	0.000834334
287.1000	0.000810172
287.0000	0.000833337
286.9000	0.000833417
286.8000	0.000786156
286.7000	0.000786209
286.6000	0.000762451
286.5000	0.000691269
286.4000	0.000714126
286.3000	0.000737178
286.2000	0.000713742
286.1000	0.000666599
286.0000	0.00061855
285.9000	0.000594676
285.8000	0.000641571
285.7000	0.000665275
285.6000	0.000664857
285.5000	0.000664714
285.4000	0.000618705
285.3000	0.000618727
285.2000	0.000618106
285.1000	0.000665331
285.0000	0.00066555
284.9000	0.000712196
284.8000	0.000760894
284.7000	0.000714143
284.6000	0.000690409
284.5000	0.000690259
284.4000	0.000713935
284.3000	0.00076129
284.2000	0.000738135
284.1000	0.00073811
284.0000	0.000738679
283.9000	0.000762338
283.8000	0.000761584
283.7000	0.000761218
283.6000	0.000808889
283.5000	0.000761617
283.4000	0.000785651
283.3000	0.000786166
283.2000	0.000714387
283.1000	0.000690034
283.0000	0.000713487
282.9000	0.000761471
282.8000	0.000808526
282.7000	0.000760906
282.6000	0.000784746
282.5000	0.000808554
282.4000	0.000808174
282.3000	0.000784783
282.2000	0.000808717
282.1000	0.00076183
282.0000	0.00071392
281.9000	0.000690123
281.8000	0.000713401
281.7000	0.000784574
281.6000	0.00071414
281.5000	0.000738219
281.4000	0.000714538
281.3000	0.000666487
281.2000	0.000619695
281.1000	0.00066731
281.0000	0.000525139
280.9000	0.000524682
280.8000	0.000501088
280.7000	0.000477809
280.6000	0.000477582
280.5000	0.000476938
280.4000	0.000500742
280.3000	0.000500855
280.2000	0.000453906
280.1000	0.000382323
280.0000	0.000405666
279.9000	0.0004057
279.8000	0.000381618
279.7000	0.000429218
279.6000	0.000429299
279.5000	0.000405994
279.4000	0.000476276
279.3000	0.000499847
279.2000	0.000499525
279.1000	0.000569923
279.0000	0.000546282
278.9000	0.000570412
278.8000	0.000546835
278.7000	0.000546527
278.6000	0.000569701
278.5000	0.000593678
278.4000	0.000617597
278.3000	0.000617286
278.2000	0.00068825
278.1000	0.000712323
278.0000	0.000736115
277.9000	0.000711835
277.8000	0.000759769
277.7000	0.000713006
277.6000	0.000712736
277.5000	0.000664967
277.4000	0.000711735
277.3000	0.000688327
277.2000	0.000689069
277.1000	0.000689385
277.0000	0.000642046
276.9000	0.000618351
276.8000	0.000617862
276.7000	0.000571057
276.6000	0.000571485
276.5000	0.000524107
276.4000	0.000500018
276.3000	0.000570632
276.2000	0.000499675
276.1000	0.000499567
276.0000	0.000476534
275.9000	0.000524526
275.8000	0.000501203
275.7000	0.000453156
275.6000	0.000475731
275.5000	0.000475861
275.4000	0.000523272
275.3000	0.00049978
275.2000	0.000523426
275.1000	0.00054676
275.0000	0.000522501
274.9000	0.000498049
274.8000	0.000474616
274.7000	0.000427808
274.6000	0.000474144
274.5000	0.000474231
274.4000	0.000427455
274.3000	0.000379986
274.2000	0.000332537
274.1000	0.000332242
274.0000	0.000285041
273.9000	0.000307827
273.8000	0.000283656
273.7000	0.000307491
273.6000	0.000260343
273.5000	0.000259761
273.4000	0.000283353
273.3000	0.000283403
273.2000	0.000307455
273.1000	0.000307308
273.0000	0.00030721
272.9000	0.000377806
272.8000	0.000448536
272.7000	0.000424718
272.6000	0.000472177
272.5000	0.000496454
272.4000	0.000496644
272.3000	0.00047389
272.2000	0.000498304
272.1000	0.000497879
272.0000	0.00059203
271.9000	0.000568281
271.8000	0.00052217
271.7000	0.00052268
271.6000	0.000545294
271.5000	0.000545009
271.4000	0.000545163
271.3000	0.000474627
271.2000	0.000474077
271.1000	0.000521108
271.0000	0.000544364
270.9000	0.00056812
270.8000	0.000591728
270.7000	0.0005912
270.6000	0.000637656
270.5000	0.000660841
270.4000	0.000637602
270.3000	0.000662301
270.2000	0.000708627
270.1000	0.000684062
270.0000	0.000613664
269.9000	0.000590419
269.8000	0.000567485
269.7000	0.000543425
269.6000	0.000544176
269.5000	0.000592055
269.4000	0.000521062
269.3000	0.000520382
269.2000	0.000544347
269.1000	0.000591514
269.0000	0.000544545
268.9000	0.000497627
268.8000	0.000403246
268.7000	0.000402323
268.6000	0.000355641
268.5000	0.000356105
268.4000	0.000379794
268.3000	0.00040328
268.2000	0.000426613
268.1000	0.000427224
268.0000	0.000379367
267.9000	0.000308143
267.8000	0.000355897
267.7000	0.000356773
267.6000	0.000356543
267.5000	0.000309444
267.4000	0.00028529
267.3000	0.000356358
267.2000	0.00035649
267.1000	0.000356987
267.0000	0.000380759
266.9000	0.000427174
266.8000	0.000450284
266.7000	0.000450379
266.6000	0.00045082
266.5000	0.000498339
266.4000	0.000522004
266.3000	0.00054546
266.2000	0.000521623
266.1000	0.000520769
266.0000	0.000568241
265.9000	0.000568602
265.8000	0.000545991
265.7000	0.00049871
265.6000	0.000545465
265.5000	0.000544927
265.4000	0.000544251
265.3000	0.000497844
265.2000	0.000451056
265.1000	0.000427176
265.0000	0.000403071
264.9000	0.000355071
264.8000	0.000355556
264.7000	0.000308584
264.6000	0.000308637
264.5000	0.000308913
264.4000	0.000213957
264.3000	0.000190309
264.2000	0.000237182
264.1000	0.000284058
264.0000	0.000284773
263.9000	0.00026148
263.8000	0.000260917
263.7000	0.000307861
263.6000	0.000378671
263.5000	0.000379486
263.4000	0.000356592
263.3000	0.000356785
263.2000	0.000332665
263.1000	0.000308635
263.0000	0.00035577
262.9000	0.000379737
262.8000	0.000379788
262.7000	0.000379897
262.6000	0.000356492
262.5000	0.000333539
262.4000	0.000332473
262.3000	0.000426838
262.2000	0.000380527
262.1000	0.000405199
262.0000	0.000334062
261.9000	0.000380596
261.8000	0.000403509
261.7000	0.000450301
261.6000	0.000473444
261.5000	0.000521102
261.4000	0.000474295
261.3000	0.000497621
261.2000	0.000497649
261.1000	0.000497108
261.0000	0.000497315
260.9000	0.000449514
260.8000	0.000450196
260.7000	0.000403531
260.6000	0.000449944
260.5000	0.000402002
260.4000	0.000401981
260.3000	0.000355176
260.2000	0.00035521
260.1000	0.00037882
260.0000	0.000426749
259.9000	0.000427104
259.8000	0.000450704
259.7000	0.000450604
259.6000	0.000521189
259.5000	0.00056885
259.4000	0.000568901
259.3000	0.000545458
259.2000	0.000545706
259.1000	0.000497473
259.0000	0.000450704
258.9000	0.000474172
258.8000	0.00049805
258.7000	0.000568628
258.6000	0.00056896
258.5000	0.000521634
258.4000	0.000498104
258.3000	0.000521345
258.2000	0.000473494
258.1000	0.000450156
258.0000	0.00038015
257.9000	0.000379972
257.8000	0.000379656
257.7000	0.000426663
257.6000	0.000473171
257.5000	0.000521059
257.4000	0.000592316
257.3000	0.000569331
257.2000	0.000569731
257.1000	0.000451282
257.0000	0.000450985
256.9000	0.000522142
256.8000	0.000521923
256.7000	0.000522176
256.6000	0.000593686
256.5000	0.000569781
256.4000	0.000569149
256.3000	0.000545038
256.2000	0.000568816
256.1000	0.000545912
256.0000	0.000499059
255.9000	0.000428568
255.8000	0.000404642
255.7000	0.000403887
255.6000	0.000426958
255.5000	0.000450554
255.4000	0.000474702
255.3000	0.000403538
255.2000	0.000403784
255.1000	0.000403821
255.0000	0.00035633
254.9000	0.000308999
254.8000	0.000308881
254.7000	0.000356825
254.6000	0.000309356
254.5000	0.00033293
254.4000	0.000356529
254.3000	0.000403816
254.2000	0.000380117
254.1000	0.000380679
254.0000	0.000381718
253.9000	0.000406106
253.8000	0.000381822
253.7000	0.000382383
253.6000	0.000311158
253.5000	0.000287204
253.4000	0.000263684
253.3000	0.000358644
253.2000	0.000383143
253.1000	0.000311854
253.0000	0.000406562
252.9000	0.000406452
252.8000	0.000359039
252.7000	0.000382704
252.6000	0.000383188
252.5000	0.000430382
252.4000	0.0004058
252.3000	0.00038151
252.2000	0.000405987
252.1000	0.000405924
252.0000	0.000453009
251.9000	0.000429652
251.8000	0.000500648
251.7000	0.000453413
251.6000	0.000499835
251.5000	0.000547459
251.4000	0.000476371
251.3000	0.000476405
251.2000	0.000500178
251.1000	0.000476348
251.0000	0.000500066
250.9000	0.000452784
250.8000	0.000452556
250.7000	0.0005236
250.6000	0.000523634
250.5000	0.000546917
250.4000	0.000547656
250.3000	0.00052421
250.2000	0.000500022
250.1000	0.000523184
250.0000	0.000500131
