TITLE	13.5_NP_0
DATA TYPE	ULTRAVIOLET SPECTRUM
ORIGIN	JASCO
OWNER	
DATE	21/05/03
TIME	15:21:43
SPECTROMETER/DATA SYSTEM	
RESOLUTION	
DELTAX	-0.1
XUNITS	NANOMETERS
YUNITS	TRANSMITTANCE
FIRSTX	  850.0000
LASTX	  250.0000
NPOINTS	    6001
FIRSTY	    81.48814
MAXY	    84.39573
MINY	    -0.00095
XYDATA
850.0000	81.4881
849.9000	81.6031
849.8000	81.7041
849.7000	81.7871
849.6000	81.874
849.5000	81.9631
849.4000	82.0448
849.3000	82.1295
849.2000	82.2159
849.1000	82.289
849.0000	82.3609
848.9000	82.4251
848.8000	82.4773
848.7000	82.5372
848.6000	82.5983
848.5000	82.6492
848.4000	82.6951
848.3000	82.7367
848.2000	82.7831
848.1000	82.817
848.0000	82.8492
847.9000	82.8824
847.8000	82.9091
847.7000	82.9318
847.6000	82.9364
847.5000	82.9434
847.4000	82.9526
847.3000	82.9612
847.2000	82.9658
847.1000	82.9728
847.0000	82.967
846.9000	82.9533
846.8000	82.9457
846.7000	82.9299
846.6000	82.905
846.5000	82.8811
846.4000	82.8542
846.3000	82.8157
846.2000	82.7829
846.1000	82.7312
846.0000	82.6927
845.9000	82.6416
845.8000	82.5825
845.7000	82.5199
845.6000	82.4493
845.5000	82.3845
845.4000	82.3137
845.3000	82.2337
845.2000	82.1507
845.1000	82.0599
845.0000	81.9646
844.9000	81.8816
844.8000	81.7825
844.7000	81.6834
844.6000	81.5753
844.5000	81.4734
844.4000	81.3599
844.3000	81.2572
844.2000	81.1447
844.1000	81.0329
844.0000	80.9144
843.9000	80.7823
843.8000	80.658
843.7000	80.5458
843.6000	80.427
843.5000	80.3024
843.4000	80.18
843.3000	80.0419
843.2000	79.9163
843.1000	79.7886
843.0000	79.6609
842.9000	79.5293
842.8000	79.4006
842.7000	79.2599
842.6000	79.1271
842.5000	78.9886
842.4000	78.8567
842.3000	78.731
842.2000	78.5934
842.1000	78.4537
842.0000	78.3164
841.9000	78.1714
841.8000	78.0333
841.7000	77.8964
841.6000	77.7631
841.5000	77.6182
841.4000	77.474
841.3000	77.3391
841.2000	77.201
841.1000	77.0682
841.0000	76.9301
840.9000	76.7973
840.8000	76.6667
840.7000	76.5233
840.6000	76.399
840.5000	76.2638
840.4000	76.135
840.3000	76.0098
840.2000	75.8873
840.1000	75.7669
840.0000	75.6361
839.9000	75.5185
839.8000	75.4025
839.7000	75.2833
839.6000	75.1638
839.5000	75.0491
839.4000	74.9396
839.3000	74.8261
839.2000	74.7152
839.1000	74.6151
839.0000	74.5088
838.9000	74.4025
838.8000	74.3015
838.7000	74.2097
838.6000	74.1167
838.5000	74.0235
838.4000	73.9406
838.3000	73.8586
838.2000	73.7756
838.1000	73.7009
838.0000	73.6262
837.9000	73.5416
837.8000	73.4676
837.7000	73.4007
837.6000	73.3499
837.5000	73.2947
837.4000	73.239
837.3000	73.1987
837.2000	73.1509
837.1000	73.1084
837.0000	73.0692
836.9000	73.037
836.8000	72.9989
836.7000	72.9699
836.6000	72.9445
836.5000	72.9188
836.4000	72.8995
836.3000	72.8942
836.2000	72.885
836.1000	72.8873
836.0000	72.8829
835.9000	72.8872
835.8000	72.8911
835.7000	72.8901
835.6000	72.8933
835.5000	72.9072
835.4000	72.9214
835.3000	72.9435
835.2000	72.9763
835.1000	73.0093
835.0000	73.0426
834.9000	73.0856
834.8000	73.1393
834.7000	73.1859
834.6000	73.2388
834.5000	73.2948
834.4000	73.3474
834.3000	73.397
834.2000	73.4563
834.1000	73.5313
834.0000	73.6187
833.9000	73.6955
833.8000	73.766
833.7000	73.8479
833.6000	73.9268
833.5000	74.0059
833.4000	74.0975
833.3000	74.1828
833.2000	74.2725
833.1000	74.3639
833.0000	74.4611
832.9000	74.5558
832.8000	74.659
832.7000	74.7717
832.6000	74.8861
832.5000	74.9972
832.4000	75.1006
832.3000	75.2115
832.2000	75.34
832.1000	75.4531
832.0000	75.5793
831.9000	75.7037
831.8000	75.8359
831.7000	75.9661
831.6000	76.0955
831.5000	76.2316
831.4000	76.3671
831.3000	76.5025
831.2000	76.6371
831.1000	76.7649
831.0000	76.9065
830.9000	77.0533
830.8000	77.1985
830.7000	77.3492
830.6000	77.4913
830.5000	77.6478
830.4000	77.7931
830.3000	77.9418
830.2000	78.0855
830.1000	78.2304
830.0000	78.3722
829.9000	78.5264
829.8000	78.677
829.7000	78.8302
829.6000	78.9804
829.5000	79.1406
829.4000	79.2934
829.3000	79.4364
829.2000	79.585
829.1000	79.7348
829.0000	79.8859
828.9000	80.0297
828.8000	80.1798
828.7000	80.3285
828.6000	80.4777
828.5000	80.627
828.4000	80.7692
828.3000	80.9059
828.2000	81.0446
828.1000	81.182
828.0000	81.3198
827.9000	81.4522
827.8000	81.5751
827.7000	81.7017
827.6000	81.8268
827.5000	81.9395
827.4000	82.0498
827.3000	82.163
827.2000	82.2733
827.1000	82.3887
827.0000	82.4912
826.9000	82.5921
826.8000	82.6978
826.7000	82.7965
826.6000	82.8871
826.5000	82.9772
826.4000	83.0655
826.3000	83.1536
826.2000	83.2271
826.1000	83.2932
826.0000	83.3653
825.9000	83.4358
825.8000	83.5061
825.7000	83.5593
825.6000	83.6105
825.5000	83.6534
825.4000	83.705
825.3000	83.7527
825.2000	83.7903
825.1000	83.8241
825.0000	83.8546
824.9000	83.8737
824.8000	83.8892
824.7000	83.8972
824.6000	83.9151
824.5000	83.9341
824.4000	83.9386
824.3000	83.9394
824.2000	83.9294
824.1000	83.9211
824.0000	83.9086
823.9000	83.8979
823.8000	83.8674
823.7000	83.8316
823.6000	83.7997
823.5000	83.7544
823.4000	83.7165
823.3000	83.6777
823.2000	83.6315
823.1000	83.5772
823.0000	83.521
822.9000	83.456
822.8000	83.3842
822.7000	83.3131
822.6000	83.247
822.5000	83.1768
822.4000	83.1003
822.3000	83.0142
822.2000	82.9317
822.1000	82.8452
822.0000	82.7503
821.9000	82.6608
821.8000	82.5558
821.7000	82.4523
821.6000	82.3458
821.5000	82.2446
821.4000	82.1403
821.3000	82.0318
821.2000	81.9233
821.1000	81.8139
821.0000	81.6927
820.9000	81.5669
820.8000	81.4478
820.7000	81.3292
820.6000	81.2027
820.5000	81.0723
820.4000	80.943
820.3000	80.8125
820.2000	80.6871
820.1000	80.5553
820.0000	80.4323
819.9000	80.2957
819.8000	80.16
819.7000	80.0284
819.6000	79.8941
819.5000	79.7588
819.4000	79.6226
819.3000	79.4877
819.2000	79.3539
819.1000	79.2117
819.0000	79.0762
818.9000	78.9539
818.8000	78.8263
818.7000	78.6959
818.6000	78.5629
818.5000	78.4337
818.4000	78.3008
818.3000	78.1772
818.2000	78.0466
818.1000	77.9155
818.0000	77.7869
817.9000	77.6568
817.8000	77.5391
817.7000	77.4174
817.6000	77.3031
817.5000	77.1892
817.4000	77.0787
817.3000	76.9547
817.2000	76.8433
817.1000	76.738
817.0000	76.6408
816.9000	76.5415
816.8000	76.441
816.7000	76.3445
816.6000	76.2505
816.5000	76.1636
816.4000	76.0826
816.3000	76.0002
816.2000	75.9223
816.1000	75.8615
816.0000	75.793
815.9000	75.7258
815.8000	75.6552
815.7000	75.5965
815.6000	75.5418
815.5000	75.4872
815.4000	75.4266
815.3000	75.3711
815.2000	75.3266
815.1000	75.2834
815.0000	75.2463
814.9000	75.2129
814.8000	75.1856
814.7000	75.159
814.6000	75.137
814.5000	75.1114
814.4000	75.0815
814.3000	75.0719
814.2000	75.063
814.1000	75.0596
814.0000	75.0576
813.9000	75.0548
813.8000	75.0631
813.7000	75.0761
813.6000	75.0834
813.5000	75.1075
813.4000	75.1347
813.3000	75.1597
813.2000	75.182
813.1000	75.217
813.0000	75.2503
812.9000	75.2898
812.8000	75.3351
812.7000	75.3767
812.6000	75.4284
812.5000	75.4827
812.4000	75.5348
812.3000	75.5947
812.2000	75.6623
812.1000	75.7259
812.0000	75.8023
811.9000	75.8695
811.8000	75.9376
811.7000	76.0195
811.6000	76.1049
811.5000	76.1942
811.4000	76.2832
811.3000	76.3781
811.2000	76.4731
811.1000	76.5749
811.0000	76.6794
810.9000	76.7755
810.8000	76.8795
810.7000	76.9924
810.6000	77.1097
810.5000	77.2289
810.4000	77.3426
810.3000	77.4583
810.2000	77.5805
810.1000	77.702
810.0000	77.8317
809.9000	77.951
809.8000	78.0857
809.7000	78.211
809.6000	78.3515
809.5000	78.4812
809.4000	78.6207
809.3000	78.7676
809.2000	78.9066
809.1000	79.0557
809.0000	79.1873
808.9000	79.3267
808.8000	79.4727
808.7000	79.6163
808.6000	79.7582
808.5000	79.9039
808.4000	80.0452
808.3000	80.1913
808.2000	80.3248
808.1000	80.4614
808.0000	80.5933
807.9000	80.734
807.8000	80.8664
807.7000	81.0057
807.6000	81.1429
807.5000	81.2662
807.4000	81.4015
807.3000	81.541
807.2000	81.6677
807.1000	81.7932
807.0000	81.9282
806.9000	82.0558
806.8000	82.1731
806.7000	82.2974
806.6000	82.4209
806.5000	82.5429
806.4000	82.6596
806.3000	82.7739
806.2000	82.8852
806.1000	82.9861
806.0000	83.0933
805.9000	83.1999
805.8000	83.2942
805.7000	83.3822
805.6000	83.4718
805.5000	83.5651
805.4000	83.6456
805.3000	83.7181
805.2000	83.7977
805.1000	83.8663
805.0000	83.9357
804.9000	83.9976
804.8000	84.0539
804.7000	84.1113
804.6000	84.1618
804.5000	84.2137
804.4000	84.2561
804.3000	84.2941
804.2000	84.3218
804.1000	84.3436
804.0000	84.3633
803.9000	84.381
803.8000	84.3915
803.7000	84.3957
803.6000	84.3938
803.5000	84.3894
803.4000	84.3798
803.3000	84.3737
803.2000	84.3585
803.1000	84.3377
803.0000	84.3069
802.9000	84.2714
802.8000	84.2387
802.7000	84.1964
802.6000	84.1636
802.5000	84.1156
802.4000	84.0732
802.3000	84.0148
802.2000	83.9554
802.1000	83.903
802.0000	83.8395
801.9000	83.7723
801.8000	83.6979
801.7000	83.6137
801.6000	83.5335
801.5000	83.4466
801.4000	83.3576
801.3000	83.2638
801.2000	83.1689
801.1000	83.0682
801.0000	82.9581
800.9000	82.8511
800.8000	82.7355
800.7000	82.6272
800.6000	82.5119
800.5000	82.3886
800.4000	82.2637
800.3000	82.1353
800.2000	81.9991
800.1000	81.8614
800.0000	81.7195
799.9000	81.5835
799.8000	81.4421
799.7000	81.2991
799.6000	81.1532
799.5000	81.0046
799.4000	80.8555
799.3000	80.719
799.2000	80.5735
799.1000	80.4199
799.0000	80.2719
798.9000	80.1192
798.8000	79.9685
798.7000	79.8218
798.6000	79.6833
798.5000	79.5423
798.4000	79.3981
798.3000	79.2475
798.2000	79.1068
798.1000	78.9634
798.0000	78.813
797.9000	78.6734
797.8000	78.5356
797.7000	78.3904
797.6000	78.2515
797.5000	78.1146
797.4000	77.9777
797.3000	77.8537
797.2000	77.728
797.1000	77.6016
797.0000	77.4709
796.9000	77.3441
796.8000	77.2262
796.7000	77.1086
796.6000	76.9907
796.5000	76.8744
796.4000	76.7694
796.3000	76.6615
796.2000	76.5565
796.1000	76.4498
796.0000	76.347
795.9000	76.2476
795.8000	76.1513
795.7000	76.0511
795.6000	75.9594
795.5000	75.8665
795.4000	75.7882
795.3000	75.7078
795.2000	75.6296
795.1000	75.5554
795.0000	75.4898
794.9000	75.4255
794.8000	75.3664
794.7000	75.312
794.6000	75.2559
794.5000	75.2135
794.4000	75.1742
794.3000	75.1322
794.2000	75.1033
794.1000	75.0739
794.0000	75.0508
793.9000	75.0368
793.8000	75.0128
793.7000	75.0032
793.6000	74.9995
793.5000	74.991
793.4000	74.9899
793.3000	74.9969
793.2000	75.0024
793.1000	75.0139
793.0000	75.03
792.9000	75.049
792.8000	75.0728
792.7000	75.1091
792.6000	75.1408
792.5000	75.1727
792.4000	75.2167
792.3000	75.2556
792.2000	75.307
792.1000	75.3585
792.0000	75.4164
791.9000	75.4877
791.8000	75.5522
791.7000	75.6231
791.6000	75.6932
791.5000	75.7651
791.4000	75.854
791.3000	75.9397
791.2000	76.0224
791.1000	76.1115
791.0000	76.1995
790.9000	76.3001
790.8000	76.4004
790.7000	76.5059
790.6000	76.609
790.5000	76.7233
790.4000	76.8339
790.3000	76.9424
790.2000	77.0564
790.1000	77.1765
790.0000	77.3002
789.9000	77.4248
789.8000	77.5441
789.7000	77.6692
789.6000	77.8057
789.5000	77.94
789.4000	78.0765
789.3000	78.2051
789.2000	78.3397
789.1000	78.4803
789.0000	78.6205
788.9000	78.7574
788.8000	78.8904
788.7000	79.0293
788.6000	79.1723
788.5000	79.3066
788.4000	79.4479
788.3000	79.5897
788.2000	79.7291
788.1000	79.8689
788.0000	80.0061
787.9000	80.1374
787.8000	80.275
787.7000	80.4182
787.6000	80.5436
787.5000	80.6714
787.4000	80.8087
787.3000	80.9367
787.2000	81.066
787.1000	81.1918
787.0000	81.315
786.9000	81.4392
786.8000	81.554
786.7000	81.6632
786.6000	81.7786
786.5000	81.8894
786.4000	81.9917
786.3000	82.0998
786.2000	82.1985
786.1000	82.2972
786.0000	82.3949
785.9000	82.4914
785.8000	82.576
785.7000	82.6623
785.6000	82.7441
785.5000	82.8207
785.4000	82.8896
785.3000	82.9588
785.2000	83.0217
785.1000	83.0895
785.0000	83.1419
784.9000	83.187
784.8000	83.2314
784.7000	83.2721
784.6000	83.3073
784.5000	83.3373
784.4000	83.3625
784.3000	83.3747
784.2000	83.3873
784.1000	83.3881
784.0000	83.39
783.9000	83.3869
783.8000	83.3786
783.7000	83.367
783.6000	83.3536
783.5000	83.3283
783.4000	83.3099
783.3000	83.2817
783.2000	83.2408
783.1000	83.1944
783.0000	83.1483
782.9000	83.0925
782.8000	83.038
782.7000	82.9772
782.6000	82.9127
782.5000	82.8481
782.4000	82.7727
782.3000	82.6969
782.2000	82.6153
782.1000	82.5234
782.0000	82.4262
781.9000	82.3306
781.8000	82.2245
781.7000	82.1147
781.6000	82.0089
781.5000	81.9039
781.4000	81.7821
781.3000	81.6626
781.2000	81.5382
781.1000	81.4117
781.0000	81.2725
780.9000	81.1338
780.8000	81
780.7000	80.8611
780.6000	80.7117
780.5000	80.5678
780.4000	80.419
780.3000	80.2629
780.2000	80.108
780.1000	79.9557
780.0000	79.7926
779.9000	79.63
779.8000	79.4724
779.7000	79.309
779.6000	79.1396
779.5000	78.9777
779.4000	78.8173
779.3000	78.6559
779.2000	78.4884
779.1000	78.324
779.0000	78.1669
778.9000	78.0013
778.8000	77.8356
778.7000	77.6734
778.6000	77.5103
778.5000	77.3421
778.4000	77.1847
778.3000	77.0194
778.2000	76.8612
778.1000	76.7073
778.0000	76.5547
777.9000	76.4003
777.8000	76.2415
777.7000	76.0878
777.6000	75.9375
777.5000	75.7847
777.4000	75.6358
777.3000	75.4903
777.2000	75.3484
777.1000	75.2083
777.0000	75.068
776.9000	74.9426
776.8000	74.8183
776.7000	74.6906
776.6000	74.5683
776.5000	74.4443
776.4000	74.3301
776.3000	74.2173
776.2000	74.1106
776.1000	74.0049
776.0000	73.8996
775.9000	73.8013
775.8000	73.7072
775.7000	73.6196
775.6000	73.5382
775.5000	73.4594
775.4000	73.3884
775.3000	73.315
775.2000	73.2449
775.1000	73.1824
775.0000	73.1213
774.9000	73.0682
774.8000	73.0116
774.7000	72.9615
774.6000	72.9207
774.5000	72.8868
774.4000	72.8612
774.3000	72.8329
774.2000	72.8115
774.1000	72.7878
774.0000	72.7784
773.9000	72.7769
773.8000	72.766
773.7000	72.7691
773.6000	72.7745
773.5000	72.7912
773.4000	72.8077
773.3000	72.8323
773.2000	72.8602
773.1000	72.8915
773.0000	72.9278
772.9000	72.968
772.8000	73.0129
772.7000	73.0618
772.6000	73.1163
772.5000	73.181
772.4000	73.2393
772.3000	73.2992
772.2000	73.3698
772.1000	73.4403
772.0000	73.5185
771.9000	73.5994
771.8000	73.685
771.7000	73.7684
771.6000	73.866
771.5000	73.9635
771.4000	74.0669
771.3000	74.1666
771.2000	74.2695
771.1000	74.3743
771.0000	74.4851
770.9000	74.5976
770.8000	74.7163
770.7000	74.8416
770.6000	74.97
770.5000	75.1007
770.4000	75.2359
770.3000	75.3641
770.2000	75.4981
770.1000	75.6304
770.0000	75.7697
769.9000	75.9145
769.8000	76.0513
769.7000	76.2002
769.6000	76.3486
769.5000	76.5054
769.4000	76.6554
769.3000	76.8057
769.2000	76.9514
769.1000	77.1024
769.0000	77.2631
768.9000	77.4124
768.8000	77.5605
768.7000	77.7121
768.6000	77.8644
768.5000	78.0304
768.4000	78.1778
768.3000	78.3255
768.2000	78.4798
768.1000	78.6256
768.0000	78.7663
767.9000	78.909
767.8000	79.0522
767.7000	79.1942
767.6000	79.3358
767.5000	79.4653
767.4000	79.5894
767.3000	79.7196
767.2000	79.8443
767.1000	79.9657
767.0000	80.0855
766.9000	80.1985
766.8000	80.3096
766.7000	80.4129
766.6000	80.5167
766.5000	80.6196
766.4000	80.718
766.3000	80.8088
766.2000	80.8917
766.1000	80.9769
766.0000	81.0577
765.9000	81.1333
765.8000	81.2062
765.7000	81.2715
765.6000	81.33
765.5000	81.3894
765.4000	81.4413
765.3000	81.4855
765.2000	81.5278
765.1000	81.5621
765.0000	81.5888
764.9000	81.609
764.8000	81.6281
764.7000	81.6386
764.6000	81.6432
764.5000	81.6386
764.4000	81.6321
764.3000	81.6226
764.2000	81.5972
764.1000	81.5693
764.0000	81.536
763.9000	81.4934
763.8000	81.4502
763.7000	81.3934
763.6000	81.3356
763.5000	81.278
763.4000	81.2128
763.3000	81.1406
763.2000	81.0597
763.1000	80.9741
763.0000	80.8858
762.9000	80.7921
762.8000	80.6937
762.7000	80.587
762.6000	80.4832
762.5000	80.3732
762.4000	80.2637
762.3000	80.1445
762.2000	80.0166
762.1000	79.8879
762.0000	79.7545
761.9000	79.6155
761.8000	79.4701
761.7000	79.3208
761.6000	79.1766
761.5000	79.0298
761.4000	78.8784
761.3000	78.7271
761.2000	78.5705
761.1000	78.4147
761.0000	78.2528
760.9000	78.0884
760.8000	77.9168
760.7000	77.7552
760.6000	77.5926
760.5000	77.4227
760.4000	77.2495
760.3000	77.0813
760.2000	76.9126
760.1000	76.7449
760.0000	76.5706
759.9000	76.3956
759.8000	76.2227
759.7000	76.0461
759.6000	75.8709
759.5000	75.6973
759.4000	75.5229
759.3000	75.3519
759.2000	75.1795
759.1000	74.9998
759.0000	74.8253
758.9000	74.6619
758.8000	74.5005
758.7000	74.3347
758.6000	74.1709
758.5000	74.0084
758.4000	73.8532
758.3000	73.694
758.2000	73.5404
758.1000	73.3925
758.0000	73.2463
757.9000	73.1036
757.8000	72.9673
757.7000	72.8261
757.6000	72.7015
757.5000	72.5836
757.4000	72.4584
757.3000	72.3354
757.2000	72.2192
757.1000	72.1093
757.0000	72.0043
756.9000	71.9032
756.8000	71.8049
756.7000	71.7166
756.6000	71.6317
756.5000	71.5457
756.4000	71.4679
756.3000	71.3934
756.2000	71.3233
756.1000	71.2641
756.0000	71.2027
755.9000	71.1441
755.8000	71.0983
755.7000	71.059
755.6000	71.0236
755.5000	70.988
755.4000	70.9587
755.3000	70.9432
755.2000	70.9259
755.1000	70.9155
755.0000	70.9149
754.9000	70.9263
754.8000	70.9337
754.7000	70.9468
754.6000	70.9628
754.5000	70.9862
754.4000	71.0128
754.3000	71.0442
754.2000	71.0832
754.1000	71.1282
754.0000	71.1771
753.9000	71.2354
753.8000	71.3048
753.7000	71.3653
753.6000	71.4355
753.5000	71.5109
753.4000	71.5878
753.3000	71.6676
753.2000	71.7567
753.1000	71.8507
753.0000	71.9502
752.9000	72.0527
752.8000	72.1584
752.7000	72.2715
752.6000	72.3921
752.5000	72.5071
752.4000	72.6309
752.3000	72.7589
752.2000	72.8867
752.1000	73.0249
752.0000	73.1643
751.9000	73.3065
751.8000	73.4546
751.7000	73.5938
751.6000	73.7422
751.5000	73.9004
751.4000	74.056
751.3000	74.21
751.2000	74.3725
751.1000	74.5368
751.0000	74.6988
750.9000	74.8681
750.8000	75.0341
750.7000	75.2006
750.6000	75.3685
750.5000	75.5307
750.4000	75.696
750.3000	75.8656
750.2000	76.0285
750.1000	76.1994
750.0000	76.3691
749.9000	76.5305
749.8000	76.6979
749.7000	76.865
749.6000	77.0284
749.5000	77.1923
749.4000	77.3543
749.3000	77.5165
749.2000	77.6737
749.1000	77.8303
749.0000	77.9816
748.9000	78.1396
748.8000	78.2891
748.7000	78.4351
748.6000	78.5789
748.5000	78.7195
748.4000	78.8579
748.3000	78.9895
748.2000	79.1192
748.1000	79.2501
748.0000	79.3757
747.9000	79.4938
747.8000	79.6018
747.7000	79.7065
747.6000	79.8127
747.5000	79.9078
747.4000	80.0002
747.3000	80.0867
747.2000	80.1682
747.1000	80.2416
747.0000	80.3191
746.9000	80.3856
746.8000	80.4417
746.7000	80.494
746.6000	80.5429
746.5000	80.5794
746.4000	80.6113
746.3000	80.6403
746.2000	80.6642
746.1000	80.6784
746.0000	80.6838
745.9000	80.6879
745.8000	80.6817
745.7000	80.666
745.6000	80.6558
745.5000	80.6373
745.4000	80.6032
745.3000	80.5685
745.2000	80.5245
745.1000	80.4794
745.0000	80.4225
744.9000	80.3651
744.8000	80.3028
744.7000	80.2311
744.6000	80.1556
744.5000	80.0738
744.4000	79.9878
744.3000	79.8971
744.2000	79.7991
744.1000	79.6999
744.0000	79.5878
743.9000	79.4713
743.8000	79.3513
743.7000	79.2267
743.6000	79.1013
743.5000	78.967
743.4000	78.8321
743.3000	78.6978
743.2000	78.5467
743.1000	78.3968
743.0000	78.2477
742.9000	78.0957
742.8000	77.9399
742.7000	77.7791
742.6000	77.6233
742.5000	77.4617
742.4000	77.2971
742.3000	77.1355
742.2000	76.9716
742.1000	76.8063
742.0000	76.6404
741.9000	76.4771
741.8000	76.3093
741.7000	76.1381
741.6000	75.9745
741.5000	75.8121
741.4000	75.6458
741.3000	75.4779
741.2000	75.3117
741.1000	75.1481
741.0000	74.9841
740.9000	74.8202
740.8000	74.6618
740.7000	74.504
740.6000	74.3487
740.5000	74.1928
740.4000	74.0435
740.3000	73.8955
740.2000	73.7504
740.1000	73.6018
740.0000	73.4527
739.9000	73.3217
739.8000	73.1908
739.7000	73.0582
739.6000	72.9337
739.5000	72.8155
739.4000	72.6998
739.3000	72.5894
739.2000	72.479
739.1000	72.3722
739.0000	72.2765
738.9000	72.1844
738.8000	72.0962
738.7000	72.0128
738.6000	71.9326
738.5000	71.8576
738.4000	71.785
738.3000	71.7182
738.2000	71.6514
738.1000	71.5961
738.0000	71.5485
737.9000	71.5
737.8000	71.4574
737.7000	71.4273
737.6000	71.4011
737.5000	71.383
737.4000	71.3666
737.3000	71.3506
737.2000	71.3451
737.1000	71.3469
737.0000	71.3522
736.9000	71.3596
736.8000	71.3783
736.7000	71.3956
736.6000	71.4277
736.5000	71.4671
736.4000	71.5105
736.3000	71.5571
736.2000	71.6113
736.1000	71.6693
736.0000	71.7312
735.9000	71.7927
735.8000	71.862
735.7000	71.9432
735.6000	72.0282
735.5000	72.1158
735.4000	72.2099
735.3000	72.3166
735.2000	72.4218
735.1000	72.5341
735.0000	72.653
734.9000	72.7693
734.8000	72.8903
734.7000	73.013
734.6000	73.1468
734.5000	73.2802
734.4000	73.4209
734.3000	73.5674
734.2000	73.7173
734.1000	73.8668
734.0000	74.021
733.9000	74.1777
733.8000	74.3392
733.7000	74.4989
733.6000	74.6622
733.5000	74.826
733.4000	74.9924
733.3000	75.1611
733.2000	75.3324
733.1000	75.5077
733.0000	75.679
732.9000	75.8505
732.8000	76.0234
732.7000	76.1993
732.6000	76.3768
732.5000	76.5527
732.4000	76.725
732.3000	76.8983
732.2000	77.0711
732.1000	77.2403
732.0000	77.4109
731.9000	77.5812
731.8000	77.7543
731.7000	77.9221
731.6000	78.0854
731.5000	78.2481
731.4000	78.4078
731.3000	78.5674
731.2000	78.7247
731.1000	78.8815
731.0000	79.0298
730.9000	79.1753
730.8000	79.3193
730.7000	79.4601
730.6000	79.5947
730.5000	79.7327
730.4000	79.8602
730.3000	79.9856
730.2000	80.0943
730.1000	80.2098
730.0000	80.3202
729.9000	80.4242
729.8000	80.5278
729.7000	80.6186
729.6000	80.7055
729.5000	80.7827
729.4000	80.8547
729.3000	80.924
729.2000	80.9857
729.1000	81.0406
729.0000	81.0911
728.9000	81.128
728.8000	81.1672
728.7000	81.2014
728.6000	81.2291
728.5000	81.2462
728.4000	81.2569
728.3000	81.2613
728.2000	81.2584
728.1000	81.2539
728.0000	81.2378
727.9000	81.2188
727.8000	81.1977
727.7000	81.1695
727.6000	81.1349
727.5000	81.0952
727.4000	81.0473
727.3000	80.9986
727.2000	80.9383
727.1000	80.8695
727.0000	80.7984
726.9000	80.7238
726.8000	80.6466
726.7000	80.5612
726.6000	80.4705
726.5000	80.3722
726.4000	80.2715
726.3000	80.1689
726.2000	80.0602
726.1000	79.9404
726.0000	79.8243
725.9000	79.6983
725.8000	79.5698
725.7000	79.4399
725.6000	79.3092
725.5000	79.1758
725.4000	79.0409
725.3000	78.8971
725.2000	78.7496
725.1000	78.6065
725.0000	78.4566
724.9000	78.3094
724.8000	78.1603
724.7000	78.0056
724.6000	77.8515
724.5000	77.6973
724.4000	77.5401
724.3000	77.3869
724.2000	77.2377
724.1000	77.0818
724.0000	76.9258
723.9000	76.7747
723.8000	76.6216
723.7000	76.4717
723.6000	76.3262
723.5000	76.1812
723.4000	76.0373
723.3000	75.8948
723.2000	75.7591
723.1000	75.6227
723.0000	75.4863
722.9000	75.3584
722.8000	75.2318
722.7000	75.1079
722.6000	74.9833
722.5000	74.8655
722.4000	74.753
722.3000	74.6455
722.2000	74.5399
722.1000	74.4409
722.0000	74.3446
721.9000	74.2554
721.8000	74.1696
721.7000	74.0854
721.6000	74.0065
721.5000	73.9325
721.4000	73.8689
721.3000	73.8078
721.2000	73.7537
721.1000	73.7051
721.0000	73.6608
720.9000	73.6236
720.8000	73.5875
720.7000	73.5571
720.6000	73.5356
720.5000	73.5213
720.4000	73.5071
720.3000	73.4936
720.2000	73.4909
720.1000	73.4941
720.0000	73.5042
719.9000	73.5207
719.8000	73.5457
719.7000	73.5736
719.6000	73.6071
719.5000	73.6475
719.4000	73.6927
719.3000	73.7441
719.2000	73.8021
719.1000	73.8639
719.0000	73.9328
718.9000	74.0023
718.8000	74.0844
718.7000	74.1727
718.6000	74.2629
718.5000	74.3606
718.4000	74.4594
718.3000	74.5642
718.2000	74.6685
718.1000	74.7778
718.0000	74.8927
717.9000	75.007
717.8000	75.1333
717.7000	75.2591
717.6000	75.3852
717.5000	75.5188
717.4000	75.6573
717.3000	75.7985
717.2000	75.9405
717.1000	76.0832
717.0000	76.2317
716.9000	76.3868
716.8000	76.5402
716.7000	76.6952
716.6000	76.8553
716.5000	77.0138
716.4000	77.1768
716.3000	77.3394
716.2000	77.4997
716.1000	77.6636
716.0000	77.8331
715.9000	77.9948
715.8000	78.1556
715.7000	78.3216
715.6000	78.4829
715.5000	78.6477
715.4000	78.813
715.3000	78.9724
715.2000	79.1315
715.1000	79.2909
715.0000	79.4444
714.9000	79.601
714.8000	79.7521
714.7000	79.9032
714.6000	80.0529
714.5000	80.1987
714.4000	80.3381
714.3000	80.4786
714.2000	80.613
714.1000	80.7404
714.0000	80.8702
713.9000	80.9921
713.8000	81.1065
713.7000	81.2153
713.6000	81.3202
713.5000	81.4205
713.4000	81.5132
713.3000	81.6055
713.2000	81.6935
713.1000	81.7762
713.0000	81.8472
712.9000	81.9133
712.8000	81.979
712.7000	82.03
712.6000	82.082
712.5000	82.1264
712.4000	82.1578
712.3000	82.1884
712.2000	82.2114
712.1000	82.2233
712.0000	82.2305
711.9000	82.2328
711.8000	82.2346
711.7000	82.2263
711.6000	82.2047
711.5000	82.1793
711.4000	82.1505
711.3000	82.1093
711.2000	82.0651
711.1000	82.0223
711.0000	81.9632
710.9000	81.898
710.8000	81.8312
710.7000	81.7577
710.6000	81.6806
710.5000	81.6032
710.4000	81.5206
710.3000	81.4282
710.2000	81.3289
710.1000	81.2262
710.0000	81.1207
709.9000	81.0116
709.8000	80.9
709.7000	80.784
709.6000	80.6606
709.5000	80.5368
709.4000	80.4074
709.3000	80.2793
709.2000	80.1447
709.1000	80.0069
709.0000	79.8665
708.9000	79.7255
708.8000	79.5789
708.7000	79.4372
708.6000	79.292
708.5000	79.1469
708.4000	78.9985
708.3000	78.8501
708.2000	78.6997
708.1000	78.5562
708.0000	78.4093
707.9000	78.2603
707.8000	78.1184
707.7000	77.9813
707.6000	77.8416
707.5000	77.7066
707.4000	77.5701
707.3000	77.4399
707.2000	77.3106
707.1000	77.1823
707.0000	77.0558
706.9000	76.9301
706.8000	76.8156
706.7000	76.697
706.6000	76.5832
706.5000	76.4707
706.4000	76.3673
706.3000	76.267
706.2000	76.171
706.1000	76.074
706.0000	75.9832
705.9000	75.8971
705.8000	75.8181
705.7000	75.7375
705.6000	75.6667
705.5000	75.5987
705.4000	75.5381
705.3000	75.4836
705.2000	75.4268
705.1000	75.3831
705.0000	75.3398
704.9000	75.3072
704.8000	75.276
704.7000	75.251
704.6000	75.2332
704.5000	75.221
704.4000	75.2199
704.3000	75.2166
704.2000	75.2227
704.1000	75.2357
704.0000	75.2554
703.9000	75.2807
703.8000	75.3087
703.7000	75.3457
703.6000	75.3923
703.5000	75.4394
703.4000	75.4983
703.3000	75.5591
703.2000	75.6258
703.1000	75.7018
703.0000	75.7796
702.9000	75.8609
702.8000	75.9473
702.7000	76.0416
702.6000	76.1382
702.5000	76.2456
702.4000	76.3512
702.3000	76.4623
702.2000	76.5825
702.1000	76.703
702.0000	76.827
701.9000	76.9582
701.8000	77.0919
701.7000	77.2232
701.6000	77.3613
701.5000	77.5001
701.4000	77.6427
701.3000	77.788
701.2000	77.9373
701.1000	78.0841
701.0000	78.2359
700.9000	78.378
700.8000	78.53
700.7000	78.6764
700.6000	78.8263
700.5000	78.9733
700.4000	79.1202
700.3000	79.2673
700.2000	79.4114
700.1000	79.5591
700.0000	79.7027
699.9000	79.8434
699.8000	79.9794
699.7000	80.1166
699.6000	80.2465
699.5000	80.3776
699.4000	80.503
699.3000	80.6286
699.2000	80.747
699.1000	80.8697
699.0000	80.9795
698.9000	81.0864
698.8000	81.1926
698.7000	81.2927
698.6000	81.3907
698.5000	81.4776
698.4000	81.5636
698.3000	81.6415
698.2000	81.7174
698.1000	81.78
698.0000	81.8421
697.9000	81.8973
697.8000	81.9486
697.7000	81.9967
697.6000	82.0372
697.5000	82.0675
697.4000	82.092
697.3000	82.1142
697.2000	82.1216
697.1000	82.1252
697.0000	82.119
696.9000	82.1076
696.8000	82.0859
696.7000	82.0643
696.6000	82.0291
696.5000	81.9964
696.4000	81.9505
696.3000	81.9042
696.2000	81.8482
696.1000	81.7823
696.0000	81.7115
695.9000	81.6322
695.8000	81.5547
695.7000	81.4693
695.6000	81.381
695.5000	81.2842
695.4000	81.1798
695.3000	81.0737
695.2000	80.9626
695.1000	80.8445
695.0000	80.7248
694.9000	80.5948
694.8000	80.4669
694.7000	80.3274
694.6000	80.1864
694.5000	80.0449
694.4000	79.8969
694.3000	79.749
694.2000	79.5954
694.1000	79.4362
694.0000	79.2767
693.9000	79.1084
693.8000	78.9427
693.7000	78.7795
693.6000	78.6124
693.5000	78.4433
693.4000	78.2702
693.3000	78.0995
693.2000	77.9277
693.1000	77.7555
693.0000	77.5828
692.9000	77.4068
692.8000	77.2341
692.7000	77.0635
692.6000	76.8894
692.5000	76.7208
692.4000	76.5502
692.3000	76.3903
692.2000	76.2278
692.1000	76.0669
692.0000	75.9062
691.9000	75.7445
691.8000	75.5872
691.7000	75.437
691.6000	75.2855
691.5000	75.1383
691.4000	74.9924
691.3000	74.8554
691.2000	74.72
691.1000	74.5885
691.0000	74.461
690.9000	74.3379
690.8000	74.222
690.7000	74.1071
690.6000	73.998
690.5000	73.8932
690.4000	73.7994
690.3000	73.7103
690.2000	73.6281
690.1000	73.5443
690.0000	73.4725
689.9000	73.4092
689.8000	73.3484
689.7000	73.2939
689.6000	73.245
689.5000	73.2024
689.4000	73.1679
689.3000	73.137
689.2000	73.1104
689.1000	73.0909
689.0000	73.0828
688.9000	73.0798
688.8000	73.0762
688.7000	73.0837
688.6000	73.0963
688.5000	73.1219
688.4000	73.1482
688.3000	73.1767
688.2000	73.2178
688.1000	73.2634
688.0000	73.3182
687.9000	73.376
687.8000	73.4395
687.7000	73.5122
687.6000	73.5886
687.5000	73.6704
687.4000	73.7538
687.3000	73.844
687.2000	73.9428
687.1000	74.0451
687.0000	74.1504
686.9000	74.2576
686.8000	74.3716
686.7000	74.4907
686.6000	74.6102
686.5000	74.7348
686.4000	74.8596
686.3000	74.9912
686.2000	75.1233
686.1000	75.255
686.0000	75.3942
685.9000	75.5354
685.8000	75.6766
685.7000	75.82
685.6000	75.9625
685.5000	76.1078
685.4000	76.2545
685.3000	76.401
685.2000	76.5452
685.1000	76.6917
685.0000	76.8368
684.9000	76.9777
684.8000	77.1182
684.7000	77.2563
684.6000	77.3951
684.5000	77.5331
684.4000	77.6653
684.3000	77.7969
684.2000	77.9283
684.1000	78.0541
684.0000	78.1782
683.9000	78.2985
683.8000	78.416
683.7000	78.5289
683.6000	78.6389
683.5000	78.7431
683.4000	78.8434
683.3000	78.9421
683.2000	79.0349
683.1000	79.1249
683.0000	79.2056
682.9000	79.2831
682.8000	79.3543
682.7000	79.4157
682.6000	79.4688
682.5000	79.5158
682.4000	79.5627
682.3000	79.5992
682.2000	79.6316
682.1000	79.6548
682.0000	79.6734
681.9000	79.6821
681.8000	79.6852
681.7000	79.6744
681.6000	79.6615
681.5000	79.6369
681.4000	79.6097
681.3000	79.5732
681.2000	79.5287
681.1000	79.4817
681.0000	79.4271
680.9000	79.3661
680.8000	79.2905
680.7000	79.2086
680.6000	79.1214
680.5000	79.0262
680.4000	78.9196
680.3000	78.8106
680.2000	78.6965
680.1000	78.5799
680.0000	78.4543
679.9000	78.3232
679.8000	78.1831
679.7000	78.0398
679.6000	77.8862
679.5000	77.7302
679.4000	77.5706
679.3000	77.408
679.2000	77.2414
679.1000	77.0679
679.0000	76.8948
678.9000	76.7235
678.8000	76.5493
678.7000	76.3732
678.6000	76.191
678.5000	76.0077
678.4000	75.826
678.3000	75.6429
678.2000	75.4659
678.1000	75.2854
678.0000	75.1103
677.9000	74.9306
677.8000	74.7539
677.7000	74.5777
677.6000	74.403
677.5000	74.2367
677.4000	74.0645
677.3000	73.8989
677.2000	73.7366
677.1000	73.5783
677.0000	73.4259
676.9000	73.2779
676.8000	73.1297
676.7000	72.9901
676.6000	72.8481
676.5000	72.7139
676.4000	72.5847
676.3000	72.4655
676.2000	72.3556
676.1000	72.2447
676.0000	72.1421
675.9000	72.0467
675.8000	71.9554
675.7000	71.8674
675.6000	71.7912
675.5000	71.7192
675.4000	71.6546
675.3000	71.5983
675.2000	71.5475
675.1000	71.5018
675.0000	71.4655
674.9000	71.4378
674.8000	71.4183
674.7000	71.4006
674.6000	71.3864
674.5000	71.3845
674.4000	71.3921
674.3000	71.3991
674.2000	71.4212
674.1000	71.4504
674.0000	71.4807
673.9000	71.5196
673.8000	71.5661
673.7000	71.6181
673.6000	71.678
673.5000	71.7442
673.4000	71.8183
673.3000	71.8947
673.2000	71.9825
673.1000	72.0743
673.0000	72.169
672.9000	72.2736
672.8000	72.3789
672.7000	72.4937
672.6000	72.6103
672.5000	72.7303
672.4000	72.8571
672.3000	72.9907
672.2000	73.127
672.1000	73.2648
672.0000	73.4058
671.9000	73.5504
671.8000	73.7008
671.7000	73.8515
671.6000	73.9968
671.5000	74.1499
671.4000	74.3071
671.3000	74.4637
671.2000	74.6261
671.1000	74.7851
671.0000	74.9459
670.9000	75.1039
670.8000	75.2645
670.7000	75.4192
670.6000	75.575
670.5000	75.7285
670.4000	75.8816
670.3000	76.0323
670.2000	76.1805
670.1000	76.3234
670.0000	76.4679
669.9000	76.6059
669.8000	76.7426
669.7000	76.8696
669.6000	76.9943
669.5000	77.1147
669.4000	77.2317
669.3000	77.3456
669.2000	77.4487
669.1000	77.5507
669.0000	77.6448
668.9000	77.7352
668.8000	77.8197
668.7000	77.8994
668.6000	77.9664
668.5000	78.0354
668.4000	78.0908
668.3000	78.1434
668.2000	78.184
668.1000	78.2212
668.0000	78.247
667.9000	78.2701
667.8000	78.2821
667.7000	78.2856
667.6000	78.286
667.5000	78.2738
667.4000	78.252
667.3000	78.227
667.2000	78.1936
667.1000	78.1474
667.0000	78.0984
666.9000	78.0378
666.8000	77.9725
666.7000	77.9017
666.6000	77.8254
666.5000	77.7417
666.4000	77.6494
666.3000	77.5508
666.2000	77.4452
666.1000	77.3347
666.0000	77.2139
665.9000	77.0916
665.8000	76.9657
665.7000	76.8265
665.6000	76.6828
665.5000	76.5391
665.4000	76.3899
665.3000	76.2347
665.2000	76.0785
665.1000	75.9185
665.0000	75.7522
664.9000	75.5822
664.8000	75.4128
664.7000	75.2359
664.6000	75.0608
664.5000	74.883
664.4000	74.7038
664.3000	74.5242
664.2000	74.3447
664.1000	74.1647
664.0000	73.9889
663.9000	73.8104
663.8000	73.633
663.7000	73.4571
663.6000	73.2825
663.5000	73.1045
663.4000	72.9328
663.3000	72.7661
663.2000	72.6009
663.1000	72.4389
663.0000	72.2794
662.9000	72.123
662.8000	71.974
662.7000	71.8242
662.6000	71.6819
662.5000	71.5474
662.4000	71.4124
662.3000	71.2862
662.2000	71.1609
662.1000	71.0449
662.0000	70.9337
661.9000	70.8287
661.8000	70.727
661.7000	70.6327
661.6000	70.5444
661.5000	70.4676
661.4000	70.3953
661.3000	70.328
661.2000	70.2731
661.1000	70.2245
661.0000	70.1825
660.9000	70.1473
660.8000	70.1218
660.7000	70.1034
660.6000	70.092
660.5000	70.0854
660.4000	70.0928
660.3000	70.105
660.2000	70.1282
660.1000	70.1589
660.0000	70.1959
659.9000	70.2411
659.8000	70.2924
659.7000	70.353
659.6000	70.4153
659.5000	70.4907
659.4000	70.5694
659.3000	70.6572
659.2000	70.7489
659.1000	70.8484
659.0000	70.9541
658.9000	71.0707
658.8000	71.1859
658.7000	71.3068
658.6000	71.4335
658.5000	71.5649
658.4000	71.7029
658.3000	71.8442
658.2000	71.9886
658.1000	72.1399
658.0000	72.2981
657.9000	72.4543
657.8000	72.6122
657.7000	72.776
657.6000	72.939
657.5000	73.1048
657.4000	73.2725
657.3000	73.4407
657.2000	73.6086
657.1000	73.7818
657.0000	73.9525
656.9000	74.1257
656.8000	74.2978
656.7000	74.4655
656.6000	74.6364
656.5000	74.8034
656.4000	74.9635
656.3000	75.1259
656.2000	75.2877
656.1000	75.4434
656.0000	75.6003
655.9000	75.7547
655.8000	75.9026
655.7000	76.0459
655.6000	76.1868
655.5000	76.3244
655.4000	76.4538
655.3000	76.5772
655.2000	76.691
655.1000	76.8002
655.0000	76.9059
654.9000	77.0064
654.8000	77.1007
654.7000	77.1884
654.6000	77.2656
654.5000	77.3356
654.4000	77.4016
654.3000	77.4538
654.2000	77.5025
654.1000	77.5397
654.0000	77.5722
653.9000	77.5938
653.8000	77.6104
653.7000	77.6172
653.6000	77.6165
653.5000	77.6104
653.4000	77.5918
653.3000	77.5667
653.2000	77.5351
653.1000	77.4886
653.0000	77.4414
652.9000	77.3852
652.8000	77.3177
652.7000	77.245
652.6000	77.1698
652.5000	77.0856
652.4000	76.9898
652.3000	76.89
652.2000	76.7853
652.1000	76.672
652.0000	76.5554
651.9000	76.4313
651.8000	76.3011
651.7000	76.1684
651.6000	76.0293
651.5000	75.8894
651.4000	75.746
651.3000	75.5973
651.2000	75.4493
651.1000	75.297
651.0000	75.1397
650.9000	74.9832
650.8000	74.8277
650.7000	74.6677
650.6000	74.5052
650.5000	74.3459
650.4000	74.1879
650.3000	74.0291
650.2000	73.8725
650.1000	73.7114
650.0000	73.5556
649.9000	73.403
649.8000	73.248
649.7000	73.099
649.6000	72.9526
649.5000	72.8083
649.4000	72.6641
649.3000	72.5264
649.2000	72.3919
649.1000	72.2631
649.0000	72.14
648.9000	72.0178
648.8000	71.9017
648.7000	71.7935
648.6000	71.6905
648.5000	71.5969
648.4000	71.507
648.3000	71.4224
648.2000	71.3446
648.1000	71.2716
648.0000	71.204
647.9000	71.1457
647.8000	71.1005
647.7000	71.0575
647.6000	71.0228
647.5000	70.9964
647.4000	70.9796
647.3000	70.9679
647.2000	70.9636
647.1000	70.9678
647.0000	70.979
646.9000	70.9973
646.8000	71.023
646.7000	71.0561
646.6000	71.0982
646.5000	71.1508
646.4000	71.2064
646.3000	71.2729
646.2000	71.3442
646.1000	71.4235
646.0000	71.508
645.9000	71.6001
645.8000	71.6928
645.7000	71.7966
645.6000	71.9099
645.5000	72.0223
645.4000	72.1433
645.3000	72.2683
645.2000	72.3987
645.1000	72.5361
645.0000	72.6752
644.9000	72.8143
644.8000	72.9648
644.7000	73.1133
644.6000	73.2634
644.5000	73.4192
644.4000	73.5815
644.3000	73.745
644.2000	73.9133
644.1000	74.0809
644.0000	74.2445
643.9000	74.4135
643.8000	74.5835
643.7000	74.7502
643.6000	74.9165
643.5000	75.0859
643.4000	75.2552
643.3000	75.4227
643.2000	75.5837
643.1000	75.744
643.0000	75.9035
642.9000	76.0625
642.8000	76.2127
642.7000	76.3597
642.6000	76.5036
642.5000	76.6436
642.4000	76.7793
642.3000	76.9119
642.2000	77.0359
642.1000	77.1565
642.0000	77.2776
641.9000	77.3818
641.8000	77.4799
641.7000	77.5741
641.6000	77.6652
641.5000	77.7472
641.4000	77.8198
641.3000	77.8809
641.2000	77.9394
641.1000	77.9886
641.0000	78.0318
640.9000	78.0675
640.8000	78.0942
640.7000	78.1136
640.6000	78.1273
640.5000	78.1293
640.4000	78.1169
640.3000	78.1071
640.2000	78.0918
640.1000	78.0618
640.0000	78.0274
639.9000	77.9845
639.8000	77.9367
639.7000	77.885
639.6000	77.8231
639.5000	77.757
639.4000	77.6794
639.3000	77.5963
639.2000	77.5104
639.1000	77.4155
639.0000	77.3169
638.9000	77.2149
638.8000	77.1072
638.7000	76.9912
638.6000	76.8725
638.5000	76.755
638.4000	76.627
638.3000	76.5031
638.2000	76.3724
638.1000	76.2382
638.0000	76.1033
637.9000	75.9624
637.8000	75.826
637.7000	75.6852
637.6000	75.5456
637.5000	75.4064
637.4000	75.2651
637.3000	75.1274
637.2000	74.9932
637.1000	74.8589
637.0000	74.7213
636.9000	74.5897
636.8000	74.4604
636.7000	74.3317
636.6000	74.2069
636.5000	74.0839
636.4000	73.9667
636.3000	73.8567
636.2000	73.7475
636.1000	73.6438
636.0000	73.5415
635.9000	73.4503
635.8000	73.3613
635.7000	73.2793
635.6000	73.1999
635.5000	73.1306
635.4000	73.0657
635.3000	73.0075
635.2000	72.9589
635.1000	72.9127
635.0000	72.8742
634.9000	72.8469
634.8000	72.8271
634.7000	72.8117
634.6000	72.8046
634.5000	72.8044
634.4000	72.8138
634.3000	72.8263
634.2000	72.8425
634.1000	72.8668
634.0000	72.902
633.9000	72.9409
633.8000	72.9941
633.7000	73.0458
633.6000	73.1036
633.5000	73.1726
633.4000	73.2499
633.3000	73.327
633.2000	73.4101
633.1000	73.5016
633.0000	73.5961
632.9000	73.6976
632.8000	73.8004
632.7000	73.9107
632.6000	74.0338
632.5000	74.1584
632.4000	74.2819
632.3000	74.4102
632.2000	74.5376
632.1000	74.6742
632.0000	74.812
631.9000	74.9501
631.8000	75.0917
631.7000	75.233
631.6000	75.3777
631.5000	75.5215
631.4000	75.6666
631.3000	75.8133
631.2000	75.9617
631.1000	76.1049
631.0000	76.2463
630.9000	76.3872
630.8000	76.5272
630.7000	76.664
630.6000	76.8008
630.5000	76.9338
630.4000	77.062
630.3000	77.1897
630.2000	77.3091
630.1000	77.4283
630.0000	77.5388
629.9000	77.6473
629.8000	77.7491
629.7000	77.8451
629.6000	77.9354
629.5000	78.0231
629.4000	78.0996
629.3000	78.1705
629.2000	78.2381
629.1000	78.2948
629.0000	78.3434
628.9000	78.3874
628.8000	78.4249
628.7000	78.4545
628.6000	78.4757
628.5000	78.4895
628.4000	78.4967
628.3000	78.4979
628.2000	78.4931
628.1000	78.4794
628.0000	78.4563
627.9000	78.4233
627.8000	78.3857
627.7000	78.3455
627.6000	78.2918
627.5000	78.2359
627.4000	78.1719
627.3000	78.1029
627.2000	78.0306
627.1000	77.9465
627.0000	77.8598
626.9000	77.7682
626.8000	77.6698
626.7000	77.5648
626.6000	77.4528
626.5000	77.3385
626.4000	77.2266
626.3000	77.1078
626.2000	76.9914
626.1000	76.8597
626.0000	76.7368
625.9000	76.606
625.8000	76.4766
625.7000	76.3403
625.6000	76.2023
625.5000	76.0665
625.4000	75.9298
625.3000	75.7896
625.2000	75.6578
625.1000	75.5217
625.0000	75.3885
624.9000	75.2555
624.8000	75.1222
624.7000	74.9955
624.6000	74.8679
624.5000	74.7481
624.4000	74.6252
624.3000	74.5088
624.2000	74.3943
624.1000	74.2843
624.0000	74.1811
623.9000	74.0843
623.8000	73.9929
623.7000	73.9084
623.6000	73.8196
623.5000	73.741
623.4000	73.6741
623.3000	73.6134
623.2000	73.5577
623.1000	73.5065
623.0000	73.4584
622.9000	73.4167
622.8000	73.3841
622.7000	73.3614
622.6000	73.3456
622.5000	73.3374
622.4000	73.3334
622.3000	73.3365
622.2000	73.3456
622.1000	73.3628
622.0000	73.3939
621.9000	73.4295
621.8000	73.4658
621.7000	73.5114
621.6000	73.5604
621.5000	73.6207
621.4000	73.6871
621.3000	73.7635
621.2000	73.842
621.1000	73.9238
621.0000	74.0107
620.9000	74.1046
620.8000	74.2015
620.7000	74.3032
620.6000	74.4105
620.5000	74.5199
620.4000	74.6277
620.3000	74.7393
620.2000	74.8583
620.1000	74.9756
620.0000	75.0936
619.9000	75.2133
619.8000	75.3338
619.7000	75.4539
619.6000	75.5745
619.5000	75.698
619.4000	75.8185
619.3000	75.9371
619.2000	76.056
619.1000	76.1703
619.0000	76.2822
618.9000	76.3952
618.8000	76.5052
618.7000	76.6138
618.6000	76.711
618.5000	76.8113
618.4000	76.9121
618.3000	77.0005
618.2000	77.0874
618.1000	77.169
618.0000	77.2485
617.9000	77.318
617.8000	77.3827
617.7000	77.4449
617.6000	77.5
617.5000	77.5465
617.4000	77.5873
617.3000	77.6178
617.2000	77.6425
617.1000	77.6576
617.0000	77.6753
616.9000	77.6796
616.8000	77.6732
616.7000	77.6654
616.6000	77.646
616.5000	77.6192
616.4000	77.5871
616.3000	77.5466
616.2000	77.4984
616.1000	77.4388
616.0000	77.3743
615.9000	77.3037
615.8000	77.2274
615.7000	77.1463
615.6000	77.0553
615.5000	76.9612
615.4000	76.853
615.3000	76.7446
615.2000	76.6317
615.1000	76.5085
615.0000	76.3849
614.9000	76.2553
614.8000	76.1151
614.7000	75.9759
614.6000	75.8336
614.5000	75.6901
614.4000	75.5398
614.3000	75.3886
614.2000	75.2334
614.1000	75.0782
614.0000	74.9242
613.9000	74.765
613.8000	74.6094
613.7000	74.4468
613.6000	74.2859
613.5000	74.1311
613.4000	73.9773
613.3000	73.8215
613.2000	73.6739
613.1000	73.5257
613.0000	73.3813
612.9000	73.2388
612.8000	73.1019
612.7000	72.9691
612.6000	72.843
612.5000	72.7192
612.4000	72.5979
612.3000	72.4849
612.2000	72.3816
612.1000	72.2817
612.0000	72.1876
611.9000	72.097
611.8000	72.015
611.7000	71.9408
611.6000	71.8724
611.5000	71.8112
611.4000	71.7598
611.3000	71.7141
611.2000	71.6775
611.1000	71.6466
611.0000	71.6233
610.9000	71.61
610.8000	71.6047
610.7000	71.6055
610.6000	71.6106
610.5000	71.6308
610.4000	71.656
610.3000	71.6896
610.2000	71.7276
610.1000	71.7742
610.0000	71.8247
609.9000	71.8859
609.8000	71.9544
609.7000	72.0256
609.6000	72.1035
609.5000	72.1874
609.4000	72.2776
609.3000	72.3679
609.2000	72.4678
609.1000	72.5705
609.0000	72.6772
608.9000	72.7838
608.8000	72.8978
608.7000	73.0126
608.6000	73.1286
608.5000	73.2455
608.4000	73.3658
608.3000	73.4901
608.2000	73.6077
608.1000	73.7304
608.0000	73.8526
607.9000	73.9736
607.8000	74.0909
607.7000	74.2107
607.6000	74.3244
607.5000	74.4395
607.4000	74.5508
607.3000	74.6618
607.2000	74.7681
607.1000	74.8662
607.0000	74.9661
606.9000	75.0599
606.8000	75.1466
606.7000	75.2241
606.6000	75.3006
606.5000	75.3734
606.4000	75.4363
606.3000	75.4934
606.2000	75.5424
606.1000	75.5833
606.0000	75.6173
605.9000	75.6433
605.8000	75.6606
605.7000	75.6682
605.6000	75.6679
605.5000	75.6659
605.4000	75.651
605.3000	75.6323
605.2000	75.6049
605.1000	75.5678
605.0000	75.5202
604.9000	75.4658
604.8000	75.4042
604.7000	75.336
604.6000	75.2612
604.5000	75.1771
604.4000	75.0889
604.3000	74.9969
604.2000	74.8976
604.1000	74.7908
604.0000	74.6749
603.9000	74.5514
603.8000	74.4244
603.7000	74.2896
603.6000	74.1514
603.5000	74.0129
603.4000	73.8685
603.3000	73.7144
603.2000	73.5595
603.1000	73.4055
603.0000	73.2446
602.9000	73.0858
602.8000	72.9243
602.7000	72.7578
602.6000	72.5903
602.5000	72.4203
602.4000	72.2554
602.3000	72.0906
602.2000	71.925
602.1000	71.7614
602.0000	71.6004
601.9000	71.4367
601.8000	71.2798
601.7000	71.1289
601.6000	70.981
601.5000	70.8372
601.4000	70.6962
601.3000	70.5611
601.2000	70.4328
601.1000	70.3079
601.0000	70.1892
600.9000	70.079
600.8000	69.9739
600.7000	69.8767
600.6000	69.7878
600.5000	69.7043
600.4000	69.6251
600.3000	69.5582
600.2000	69.4999
600.1000	69.4497
600.0000	69.5103
599.9000	69.4812
599.8000	69.4558
599.7000	69.4465
599.6000	69.439
599.5000	69.4399
599.4000	69.4543
599.3000	69.4736
599.2000	69.5039
599.1000	69.5402
599.0000	69.5863
598.9000	69.6387
598.8000	69.6998
598.7000	69.7676
598.6000	69.8404
598.5000	69.9191
598.4000	70.0103
598.3000	70.1078
598.2000	70.2089
598.1000	70.3132
598.0000	70.428
597.9000	70.5458
597.8000	70.6662
597.7000	70.7912
597.6000	70.9185
597.5000	71.0473
597.4000	71.1817
597.3000	71.32
597.2000	71.4537
597.1000	71.5892
597.0000	71.7323
596.9000	71.8742
596.8000	72.0108
596.7000	72.1455
596.6000	72.283
596.5000	72.414
596.4000	72.5424
596.3000	72.6666
596.2000	72.7927
596.1000	72.9118
596.0000	73.0296
595.9000	73.1415
595.8000	73.2434
595.7000	73.3447
595.6000	73.444
595.5000	73.5359
595.4000	73.6129
595.3000	73.6912
595.2000	73.76
595.1000	73.823
595.0000	73.8772
594.9000	73.9277
594.8000	73.9683
594.7000	74.0033
594.6000	74.024
594.5000	74.0379
594.4000	74.0405
594.3000	74.0386
594.2000	74.0303
594.1000	74.0083
594.0000	73.98
593.9000	73.9426
593.8000	73.8999
593.7000	73.8452
593.6000	73.7805
593.5000	73.7131
593.4000	73.6385
593.3000	73.5493
593.2000	73.4596
593.1000	73.3595
593.0000	73.2526
592.9000	73.1427
592.8000	73.0268
592.7000	72.9072
592.6000	72.7782
592.5000	72.6481
592.4000	72.5074
592.3000	72.3673
592.2000	72.2241
592.1000	72.0781
592.0000	71.9341
591.9000	71.7811
591.8000	71.6278
591.7000	71.4779
591.6000	71.3268
591.5000	71.1782
591.4000	71.0275
591.3000	70.8777
591.2000	70.7338
591.1000	70.5858
591.0000	70.4427
590.9000	70.3065
590.8000	70.1753
590.7000	70.0475
590.6000	69.9211
590.5000	69.7979
590.4000	69.6805
590.3000	69.5687
590.2000	69.4659
590.1000	69.368
590.0000	69.274
589.9000	69.1873
589.8000	69.1113
589.7000	69.0428
589.6000	68.977
589.5000	68.9251
589.4000	68.8794
589.3000	68.8364
589.2000	68.8015
589.1000	68.7796
589.0000	68.7663
588.9000	68.7613
588.8000	68.7661
588.7000	68.7781
588.6000	68.7976
588.5000	68.831
588.4000	68.8656
588.3000	68.9116
588.2000	68.965
588.1000	69.0227
588.0000	69.0902
587.9000	69.1623
587.8000	69.2463
587.7000	69.3376
587.6000	69.4369
587.5000	69.5339
587.4000	69.641
587.3000	69.7528
587.2000	69.8699
587.1000	69.9941
587.0000	70.1188
586.9000	70.2451
586.8000	70.3818
586.7000	70.5194
586.6000	70.6556
586.5000	70.7996
586.4000	70.9454
586.3000	71.091
586.2000	71.2346
586.1000	71.3784
586.0000	71.5242
585.9000	71.672
585.8000	71.8126
585.7000	71.9528
585.6000	72.0927
585.5000	72.2271
585.4000	72.3608
585.3000	72.4872
585.2000	72.6096
585.1000	72.7266
585.0000	72.8414
584.9000	72.9461
584.8000	73.0407
584.7000	73.1375
584.6000	73.2257
584.5000	73.3076
584.4000	73.3776
584.3000	73.4378
584.2000	73.5008
584.1000	73.5518
584.0000	73.592
583.9000	73.6305
583.8000	73.6573
583.7000	73.6774
583.6000	73.6847
583.5000	73.6876
583.4000	73.6831
583.3000	73.6742
583.2000	73.6592
583.1000	73.6283
583.0000	73.5931
582.9000	73.5531
582.8000	73.5071
582.7000	73.4524
582.6000	73.3853
582.5000	73.3191
582.4000	73.2436
582.3000	73.1584
582.2000	73.0701
582.1000	72.9785
582.0000	72.8843
581.9000	72.7863
581.8000	72.683
581.7000	72.5728
581.6000	72.4603
581.5000	72.3461
581.4000	72.2291
581.3000	72.1057
581.2000	71.9846
581.1000	71.8643
581.0000	71.7479
580.9000	71.6208
580.8000	71.4993
580.7000	71.3829
580.6000	71.2664
580.5000	71.1538
580.4000	71.0393
580.3000	70.9243
580.2000	70.8185
580.1000	70.7146
580.0000	70.6169
579.9000	70.5212
579.8000	70.43
579.7000	70.3508
579.6000	70.2727
579.5000	70.2044
579.4000	70.132
579.3000	70.0799
579.2000	70.0305
579.1000	69.9872
579.0000	69.9492
578.9000	69.9157
578.8000	69.8969
578.7000	69.8869
578.6000	69.8767
578.5000	69.8785
578.4000	69.8875
578.3000	69.9102
578.2000	69.9355
578.1000	69.9646
578.0000	70.007
577.9000	70.0536
577.8000	70.1153
577.7000	70.174
577.6000	70.2419
577.5000	70.315
577.4000	70.3968
577.3000	70.4852
577.2000	70.5797
577.1000	70.6766
577.0000	70.7845
576.9000	70.8913
576.8000	71.0029
576.7000	71.1157
576.6000	71.2387
576.5000	71.3631
576.4000	71.4844
576.3000	71.6125
576.2000	71.7355
576.1000	71.8626
576.0000	71.9939
575.9000	72.1236
575.8000	72.2515
575.7000	72.378
575.6000	72.5043
575.5000	72.628
575.4000	72.7479
575.3000	72.8707
575.2000	72.9889
575.1000	73.1015
575.0000	73.2102
574.9000	73.317
574.8000	73.4185
574.7000	73.5172
574.6000	73.6097
574.5000	73.6988
574.4000	73.7787
574.3000	73.8523
574.2000	73.9202
574.1000	73.9846
574.0000	74.0364
573.9000	74.0863
573.8000	74.1275
573.7000	74.1622
573.6000	74.1859
573.5000	74.206
573.4000	74.2182
573.3000	74.2223
573.2000	74.2178
573.1000	74.2041
573.0000	74.1909
572.9000	74.166
572.8000	74.1338
572.7000	74.095
572.6000	74.0513
572.5000	74.0024
572.4000	73.947
572.3000	73.8848
572.2000	73.8199
572.1000	73.747
572.0000	73.6724
571.9000	73.5921
571.8000	73.5085
571.7000	73.4194
571.6000	73.3287
571.5000	73.2355
571.4000	73.1359
571.3000	73.0406
571.2000	72.9413
571.1000	72.8414
571.0000	72.7422
570.9000	72.6374
570.8000	72.5379
570.7000	72.4407
570.6000	72.3417
570.5000	72.2451
570.4000	72.1525
570.3000	72.0623
570.2000	71.9743
570.1000	71.8902
570.0000	71.812
569.9000	71.7358
569.8000	71.6655
569.7000	71.597
569.6000	71.536
569.5000	71.4839
569.4000	71.4369
569.3000	71.3951
569.2000	71.3598
569.1000	71.3299
569.0000	71.3063
568.9000	71.2896
568.8000	71.2808
568.7000	71.2751
568.6000	71.2742
568.5000	71.2879
568.4000	71.3056
568.3000	71.3259
568.2000	71.3561
568.1000	71.394
568.0000	71.4386
567.9000	71.4844
567.8000	71.5372
567.7000	71.5979
567.6000	71.6646
567.5000	71.7326
567.4000	71.8051
567.3000	71.8839
567.2000	71.9673
567.1000	72.0539
567.0000	72.1464
566.9000	72.2339
566.8000	72.3284
566.7000	72.4275
566.6000	72.5232
566.5000	72.62
566.4000	72.7162
566.3000	72.8202
566.2000	72.9188
566.1000	73.0195
566.0000	73.1128
565.9000	73.2057
565.8000	73.2999
565.7000	73.3896
565.6000	73.4739
565.5000	73.56
565.4000	73.6395
565.3000	73.7142
565.2000	73.7884
565.1000	73.8519
565.0000	73.9179
564.9000	73.9779
564.8000	74.0302
564.7000	74.0716
564.6000	74.1132
564.5000	74.1452
564.4000	74.1725
564.3000	74.1954
564.2000	74.2087
564.1000	74.2166
564.0000	74.2175
563.9000	74.2108
563.8000	74.1995
563.7000	74.1791
563.6000	74.152
563.5000	74.121
563.4000	74.0765
563.3000	74.029
563.2000	73.9802
563.1000	73.9229
563.0000	73.856
562.9000	73.784
562.8000	73.7107
562.7000	73.6292
562.6000	73.545
562.5000	73.4592
562.4000	73.3691
562.3000	73.2751
562.2000	73.1774
562.1000	73.0828
562.0000	72.9772
561.9000	72.8731
561.8000	72.7709
561.7000	72.6673
561.6000	72.5542
561.5000	72.4509
561.4000	72.3463
561.3000	72.2448
561.2000	72.1418
561.1000	72.0396
561.0000	71.9439
560.9000	71.8504
560.8000	71.7588
560.7000	71.6686
560.6000	71.5842
560.5000	71.5021
560.4000	71.4254
560.3000	71.359
560.2000	71.293
560.1000	71.2327
560.0000	71.1833
559.9000	71.1335
559.8000	71.0905
559.7000	71.0533
559.6000	71.0235
559.5000	71.0014
559.4000	70.9813
559.3000	70.9696
559.2000	70.9647
559.1000	70.9675
559.0000	70.9746
558.9000	70.9914
558.8000	71.0152
558.7000	71.0411
558.6000	71.0768
558.5000	71.1128
558.4000	71.1589
558.3000	71.2091
558.2000	71.2621
558.1000	71.3216
558.0000	71.3802
557.9000	71.4478
557.8000	71.5176
557.7000	71.5905
557.6000	71.663
557.5000	71.7422
557.4000	71.821
557.3000	71.8962
557.2000	71.975
557.1000	72.0541
557.0000	72.135
556.9000	72.213
556.8000	72.2871
556.7000	72.3632
556.6000	72.4389
556.5000	72.5093
556.4000	72.5821
556.3000	72.6463
556.2000	72.7067
556.1000	72.7613
556.0000	72.8141
555.9000	72.859
555.8000	72.8974
555.7000	72.9349
555.6000	72.9648
555.5000	72.9868
555.4000	72.9999
555.3000	73.0108
555.2000	73.0112
555.1000	73.0047
555.0000	72.993
554.9000	72.9757
554.8000	72.9475
554.7000	72.9147
554.6000	72.876
554.5000	72.8262
554.4000	72.7711
554.3000	72.7098
554.2000	72.6443
554.1000	72.5697
554.0000	72.4909
553.9000	72.4052
553.8000	72.3176
553.7000	72.2213
553.6000	72.1248
553.5000	72.0206
553.4000	71.9139
553.3000	71.7996
553.2000	71.6859
553.1000	71.5687
553.0000	71.4494
552.9000	71.3331
552.8000	71.2126
552.7000	71.089
552.6000	70.966
552.5000	70.8409
552.4000	70.7208
552.3000	70.5987
552.2000	70.4742
552.1000	70.3586
552.0000	70.2426
551.9000	70.1296
551.8000	70.0229
551.7000	69.9172
551.6000	69.8196
551.5000	69.7251
551.4000	69.6363
551.3000	69.5492
551.2000	69.4681
551.1000	69.3989
551.0000	69.338
550.9000	69.2821
550.8000	69.2281
550.7000	69.182
550.6000	69.1488
550.5000	69.1173
550.4000	69.0944
550.3000	69.0829
550.2000	69.0673
550.1000	69.0714
550.0000	69.0759
549.9000	69.0879
549.8000	69.1085
549.7000	69.1351
549.6000	69.1709
549.5000	69.209
549.4000	69.2488
549.3000	69.2978
549.2000	69.3514
549.1000	69.4132
549.0000	69.472
548.9000	69.5387
548.8000	69.6108
548.7000	69.6806
548.6000	69.7607
548.5000	69.8357
548.4000	69.9171
548.3000	70.0003
548.2000	70.0808
548.1000	70.1597
548.0000	70.2385
547.9000	70.3152
547.8000	70.3918
547.7000	70.4659
547.6000	70.5382
547.5000	70.6069
547.4000	70.6736
547.3000	70.7371
547.2000	70.7906
547.1000	70.8431
547.0000	70.8908
546.9000	70.9336
546.8000	70.9638
546.7000	70.9921
546.6000	71.0151
546.5000	71.0342
546.4000	71.0464
546.3000	71.0478
546.2000	71.045
546.1000	71.0379
546.0000	71.0218
545.9000	70.9974
545.8000	70.9664
545.7000	70.9252
545.6000	70.882
545.5000	70.8305
545.4000	70.768
545.3000	70.7019
545.2000	70.6311
545.1000	70.5525
545.0000	70.4681
544.9000	70.38
544.8000	70.2824
544.7000	70.1827
544.6000	70.0795
544.5000	69.966
544.4000	69.8538
544.3000	69.7418
544.2000	69.6267
544.1000	69.5075
544.0000	69.3875
543.9000	69.2641
543.8000	69.142
543.7000	69.0194
543.6000	68.8982
543.5000	68.7746
543.4000	68.6534
543.3000	68.5351
543.2000	68.4241
543.1000	68.3159
543.0000	68.2063
542.9000	68.1067
542.8000	68.007
542.7000	67.9088
542.6000	67.8189
542.5000	67.7361
542.4000	67.6564
542.3000	67.5871
542.2000	67.5249
542.1000	67.4658
542.0000	67.4168
541.9000	67.3768
541.8000	67.3416
541.7000	67.3126
541.6000	67.2898
541.5000	67.273
541.4000	67.2675
541.3000	67.2674
541.2000	67.2737
541.1000	67.2921
541.0000	67.316
540.9000	67.3461
540.8000	67.3847
540.7000	67.4292
540.6000	67.4779
540.5000	67.5359
540.4000	67.5968
540.3000	67.659
540.2000	67.73
540.1000	67.8028
540.0000	67.8792
539.9000	67.9635
539.8000	68.0502
539.7000	68.1411
539.6000	68.2298
539.5000	68.3172
539.4000	68.4045
539.3000	68.496
539.2000	68.5856
539.1000	68.675
539.0000	68.7632
538.9000	68.848
538.8000	68.9326
538.7000	69.0165
538.6000	69.0942
538.5000	69.1721
538.4000	69.2449
538.3000	69.3108
538.2000	69.3716
538.1000	69.4234
538.0000	69.4779
537.9000	69.5223
537.8000	69.5657
537.7000	69.5968
537.6000	69.6226
537.5000	69.6411
537.4000	69.6532
537.3000	69.659
537.2000	69.6541
537.1000	69.6492
537.0000	69.6354
536.9000	69.6138
536.8000	69.5851
536.7000	69.5505
536.6000	69.509
536.5000	69.4658
536.4000	69.4134
536.3000	69.3564
536.2000	69.2927
536.1000	69.2299
536.0000	69.1604
535.9000	69.0822
535.8000	69.0027
535.7000	68.9208
535.6000	68.8402
535.5000	68.7499
535.4000	68.662
535.3000	68.5693
535.2000	68.4782
535.1000	68.3847
535.0000	68.2941
534.9000	68.2011
534.8000	68.1087
534.7000	68.0209
534.6000	67.9321
534.5000	67.8435
534.4000	67.76
534.3000	67.685
534.2000	67.6092
534.1000	67.538
534.0000	67.4689
533.9000	67.4063
533.8000	67.3476
533.7000	67.297
533.6000	67.2519
533.5000	67.2177
533.4000	67.1861
533.3000	67.1586
533.2000	67.1357
533.1000	67.1233
533.0000	67.1141
532.9000	67.1171
532.8000	67.123
532.7000	67.1353
532.6000	67.1588
532.5000	67.1867
532.4000	67.2209
532.3000	67.2599
532.2000	67.3081
532.1000	67.3608
532.0000	67.4168
531.9000	67.4773
531.8000	67.5411
531.7000	67.6154
531.6000	67.6958
531.5000	67.7775
531.4000	67.8655
531.3000	67.9488
531.2000	68.0391
531.1000	68.1287
531.0000	68.2221
530.9000	68.3164
530.8000	68.4082
530.7000	68.5016
530.6000	68.5943
530.5000	68.6853
530.4000	68.775
530.3000	68.8664
530.2000	68.951
530.1000	69.0323
530.0000	69.1124
529.9000	69.1909
529.8000	69.262
529.7000	69.3327
529.6000	69.3949
529.5000	69.4506
529.4000	69.5016
529.3000	69.5472
529.2000	69.5923
529.1000	69.6253
529.0000	69.6533
528.9000	69.6816
528.8000	69.704
528.7000	69.7119
528.6000	69.7214
528.5000	69.7203
528.4000	69.7145
528.3000	69.699
528.2000	69.6847
528.1000	69.6603
528.0000	69.6363
527.9000	69.6082
527.8000	69.5696
527.7000	69.5279
527.6000	69.4799
527.5000	69.4371
527.4000	69.3877
527.3000	69.3322
527.2000	69.2766
527.1000	69.2186
527.0000	69.1592
526.9000	69.0974
526.8000	69.0349
526.7000	68.9738
526.6000	68.9082
526.5000	68.8493
526.4000	68.7879
526.3000	68.7289
526.2000	68.675
526.1000	68.6189
526.0000	68.5687
525.9000	68.5208
525.8000	68.4758
525.7000	68.4311
525.6000	68.3898
525.5000	68.3544
525.4000	68.3248
525.3000	68.3026
525.2000	68.2811
525.1000	68.2653
525.0000	68.2535
524.9000	68.2491
524.8000	68.2467
524.7000	68.2492
524.6000	68.2575
524.5000	68.2764
524.4000	68.2961
524.3000	68.3206
524.2000	68.3484
524.1000	68.3812
524.0000	68.4228
523.9000	68.4696
523.8000	68.5174
523.7000	68.5707
523.6000	68.6312
523.5000	68.6917
523.4000	68.7567
523.3000	68.8198
523.2000	68.8908
523.1000	68.9639
523.0000	69.0345
522.9000	69.1032
522.8000	69.1781
522.7000	69.2487
522.6000	69.3224
522.5000	69.3951
522.4000	69.4641
522.3000	69.5312
522.2000	69.598
522.1000	69.6595
522.0000	69.7181
521.9000	69.7758
521.8000	69.8321
521.7000	69.8834
521.6000	69.9274
521.5000	69.9712
521.4000	70.0108
521.3000	70.0454
521.2000	70.0748
521.1000	70.1013
521.0000	70.1265
520.9000	70.144
520.8000	70.1516
520.7000	70.1565
520.6000	70.155
520.5000	70.1564
520.4000	70.1468
520.3000	70.13
520.2000	70.1118
520.1000	70.0904
520.0000	70.1414
519.9000	70.1107
519.8000	70.0748
519.7000	70.0403
519.6000	69.9991
519.5000	69.9556
519.4000	69.9141
519.3000	69.8646
519.2000	69.8135
519.1000	69.7639
519.0000	69.7157
518.9000	69.6614
518.8000	69.608
518.7000	69.5584
518.6000	69.5042
518.5000	69.4572
518.4000	69.41
518.3000	69.3625
518.2000	69.3243
518.1000	69.284
518.0000	69.2451
517.9000	69.2084
517.8000	69.175
517.7000	69.1459
517.6000	69.1191
517.5000	69.0978
517.4000	69.0756
517.3000	69.0677
517.2000	69.0599
517.1000	69.0533
517.0000	69.0549
516.9000	69.0595
516.8000	69.0688
516.7000	69.0797
516.6000	69.0864
516.5000	69.1029
516.4000	69.1264
516.3000	69.1494
516.2000	69.1737
516.1000	69.2039
516.0000	69.2375
515.9000	69.2742
515.8000	69.3169
515.7000	69.3528
515.6000	69.3942
515.5000	69.4382
515.4000	69.4796
515.3000	69.5218
515.2000	69.5631
515.1000	69.6055
515.0000	69.6485
514.9000	69.6856
514.8000	69.7236
514.7000	69.7615
514.6000	69.7995
514.5000	69.8294
514.4000	69.8603
514.3000	69.8836
514.2000	69.9034
514.1000	69.9249
514.0000	69.9372
513.9000	69.945
513.8000	69.9503
513.7000	69.9509
513.6000	69.946
513.5000	69.9405
513.4000	69.9311
513.3000	69.9179
513.2000	69.8964
513.1000	69.8745
513.0000	69.8439
512.9000	69.813
512.8000	69.7743
512.7000	69.7347
512.6000	69.6922
512.5000	69.6457
512.4000	69.598
512.3000	69.5479
512.2000	69.4943
512.1000	69.4355
512.0000	69.3787
511.9000	69.3154
511.8000	69.2551
511.7000	69.1906
511.6000	69.1275
511.5000	69.0629
511.4000	68.999
511.3000	68.9364
511.2000	68.8758
511.1000	68.816
511.0000	68.7537
510.9000	68.6933
510.8000	68.6358
510.7000	68.5782
510.6000	68.5278
510.5000	68.4837
510.4000	68.4332
510.3000	68.3899
510.2000	68.3487
510.1000	68.3158
510.0000	68.2852
509.9000	68.2578
509.8000	68.2327
509.7000	68.2137
509.6000	68.1985
509.5000	68.1876
509.4000	68.1793
509.3000	68.1737
509.2000	68.1714
509.1000	68.176
509.0000	68.1811
508.9000	68.1887
508.8000	68.208
508.7000	68.225
508.6000	68.2435
508.5000	68.2619
508.4000	68.2845
508.3000	68.3095
508.2000	68.3357
508.1000	68.3618
508.0000	68.3854
507.9000	68.4084
507.8000	68.4381
507.7000	68.4648
507.6000	68.4891
507.5000	68.5108
507.4000	68.5287
507.3000	68.5462
507.2000	68.5575
507.1000	68.5705
507.0000	68.5816
506.9000	68.5888
506.8000	68.5882
506.7000	68.5839
506.6000	68.577
506.5000	68.564
506.4000	68.5486
506.3000	68.5278
506.2000	68.5021
506.1000	68.4713
506.0000	68.4366
505.9000	68.3998
505.8000	68.3603
505.7000	68.312
505.6000	68.2603
505.5000	68.2047
505.4000	68.145
505.3000	68.0875
505.2000	68.0242
505.1000	67.9561
505.0000	67.8885
504.9000	67.8126
504.8000	67.7395
504.7000	67.6655
504.6000	67.5881
504.5000	67.5113
504.4000	67.4353
504.3000	67.3599
504.2000	67.2833
504.1000	67.2067
504.0000	67.1348
503.9000	67.0576
503.8000	66.9872
503.7000	66.9116
503.6000	66.8425
503.5000	66.7793
503.4000	66.7144
503.3000	66.6632
503.2000	66.6074
503.1000	66.5574
503.0000	66.5127
502.9000	66.4694
502.8000	66.4309
502.7000	66.3949
502.6000	66.3648
502.5000	66.3424
502.4000	66.3223
502.3000	66.3079
502.2000	66.2962
502.1000	66.2891
502.0000	66.2916
501.9000	66.2922
501.8000	66.2979
501.7000	66.3032
501.6000	66.3185
501.5000	66.3345
501.4000	66.3499
501.3000	66.372
501.2000	66.3946
501.1000	66.4178
501.0000	66.4441
500.9000	66.4689
500.8000	66.492
500.7000	66.5213
500.6000	66.5457
500.5000	66.5706
500.4000	66.5909
500.3000	66.6144
500.2000	66.6351
500.1000	66.6595
500.0000	66.6754
499.9000	66.6884
499.8000	66.7012
499.7000	66.7096
499.6000	66.7155
499.5000	66.7164
499.4000	66.7131
499.3000	66.708
499.2000	66.6998
499.1000	66.6865
499.0000	66.6707
498.9000	66.6517
498.8000	66.6284
498.7000	66.5983
498.6000	66.567
498.5000	66.5229
498.4000	66.4776
498.3000	66.4316
498.2000	66.3834
498.1000	66.3351
498.0000	66.2807
497.9000	66.2248
497.8000	66.169
497.7000	66.1089
497.6000	66.0468
497.5000	65.9862
497.4000	65.9202
497.3000	65.8579
497.2000	65.7924
497.1000	65.7279
497.0000	65.6622
496.9000	65.6029
496.8000	65.5444
496.7000	65.4877
496.6000	65.4283
496.5000	65.3714
496.4000	65.3183
496.3000	65.2719
496.2000	65.2257
496.1000	65.1851
496.0000	65.1491
495.9000	65.1124
495.8000	65.0859
495.7000	65.0552
495.6000	65.0343
495.5000	65.0159
495.4000	65.0048
495.3000	64.997
495.2000	64.993
495.1000	64.9888
495.0000	64.9954
494.9000	65.0016
494.8000	65.0161
494.7000	65.0323
494.6000	65.0509
494.5000	65.0737
494.4000	65.0978
494.3000	65.1232
494.2000	65.1548
494.1000	65.1919
494.0000	65.2248
493.9000	65.2634
493.8000	65.3018
493.7000	65.3382
493.6000	65.3793
493.5000	65.4193
493.4000	65.4566
493.3000	65.4943
493.2000	65.5298
493.1000	65.5667
493.0000	65.5958
492.9000	65.6264
492.8000	65.6554
492.7000	65.6838
492.6000	65.7049
492.5000	65.7191
492.4000	65.7365
492.3000	65.7513
492.2000	65.7624
492.1000	65.7713
492.0000	65.772
491.9000	65.773
491.8000	65.7717
491.7000	65.7688
491.6000	65.7598
491.5000	65.7456
491.4000	65.7339
491.3000	65.7135
491.2000	65.6931
491.1000	65.6697
491.0000	65.645
490.9000	65.6218
490.8000	65.5921
490.7000	65.5625
490.6000	65.5326
490.5000	65.4989
490.4000	65.4672
490.3000	65.4372
490.2000	65.4043
490.1000	65.3727
490.0000	65.342
489.9000	65.3105
489.8000	65.2834
489.7000	65.2581
489.6000	65.2339
489.5000	65.2119
489.4000	65.1894
489.3000	65.173
489.2000	65.16
489.1000	65.1464
489.0000	65.1335
488.9000	65.1277
488.8000	65.1294
488.7000	65.1281
488.6000	65.1297
488.5000	65.1367
488.4000	65.1457
488.3000	65.1611
488.2000	65.1746
488.1000	65.1917
488.0000	65.2134
487.9000	65.2385
487.8000	65.2654
487.7000	65.2913
487.6000	65.3221
487.5000	65.3543
487.4000	65.3894
487.3000	65.4236
487.2000	65.4556
487.1000	65.4914
487.0000	65.5276
486.9000	65.5612
486.8000	65.5967
486.7000	65.6343
486.6000	65.6721
486.5000	65.7073
486.4000	65.7423
486.3000	65.7748
486.2000	65.8093
486.1000	65.8433
486.0000	65.8706
485.9000	65.8961
485.8000	65.9209
485.7000	65.9441
485.6000	65.9643
485.5000	65.9847
485.4000	66.0007
485.3000	66.016
485.2000	66.031
485.1000	66.0386
485.0000	66.0464
484.9000	66.0559
484.8000	66.0578
484.7000	66.0596
484.6000	66.0594
484.5000	66.057
484.4000	66.0525
484.3000	66.0462
484.2000	66.0389
484.1000	66.0331
484.0000	66.0258
483.9000	66.0157
483.8000	66.0105
483.7000	66.0005
483.6000	65.9907
483.5000	65.9824
483.4000	65.9742
483.3000	65.964
483.2000	65.9572
483.1000	65.9528
483.0000	65.9447
482.9000	65.94
482.8000	65.937
482.7000	65.9385
482.6000	65.9415
482.5000	65.9402
482.4000	65.9424
482.3000	65.9485
482.2000	65.952
482.1000	65.9633
482.0000	65.9747
481.9000	65.9845
481.8000	65.9971
481.7000	66.0074
481.6000	66.0215
481.5000	66.0338
481.4000	66.0491
481.3000	66.0623
481.2000	66.0822
481.1000	66.1031
481.0000	66.1187
480.9000	66.1397
480.8000	66.1598
480.7000	66.1775
480.6000	66.2017
480.5000	66.2217
480.4000	66.2393
480.3000	66.257
480.2000	66.2708
480.1000	66.288
480.0000	66.3013
479.9000	66.3139
479.8000	66.3267
479.7000	66.3415
479.6000	66.3475
479.5000	66.352
479.4000	66.3605
479.3000	66.3624
479.2000	66.3601
479.1000	66.363
479.0000	66.3609
478.9000	66.3563
478.8000	66.3514
478.7000	66.3466
478.6000	66.3401
478.5000	66.3357
478.4000	66.3278
478.3000	66.3192
478.2000	66.3104
478.1000	66.2969
478.0000	66.2903
477.9000	66.2792
477.8000	66.2662
477.7000	66.2598
477.6000	66.2555
477.5000	66.2428
477.4000	66.2302
477.3000	66.2185
477.2000	66.2099
477.1000	66.1982
477.0000	66.1868
476.9000	66.1743
476.8000	66.1646
476.7000	66.1569
476.6000	66.1487
476.5000	66.1434
476.4000	66.1344
476.3000	66.1261
476.2000	66.122
476.1000	66.1153
476.0000	66.1107
475.9000	66.106
475.8000	66.1033
475.7000	66.0964
475.6000	66.0907
475.5000	66.0842
475.4000	66.0851
475.3000	66.0864
475.2000	66.0848
475.1000	66.08
475.0000	66.0777
474.9000	66.0742
474.8000	66.0704
474.7000	66.0716
474.6000	66.0631
474.5000	66.0554
474.4000	66.0458
474.3000	66.0357
474.2000	66.0234
474.1000	66.0179
474.0000	66.0029
473.9000	65.9909
473.8000	65.9785
473.7000	65.9592
473.6000	65.944
473.5000	65.925
473.4000	65.905
473.3000	65.8824
473.2000	65.8548
473.1000	65.8256
473.0000	65.8016
472.9000	65.7715
472.8000	65.744
472.7000	65.7148
472.6000	65.6856
472.5000	65.6483
472.4000	65.6169
472.3000	65.583
472.2000	65.5396
472.1000	65.5023
472.0000	65.4629
471.9000	65.4284
471.8000	65.3894
471.7000	65.351
471.6000	65.3182
471.5000	65.2825
471.4000	65.2433
471.3000	65.2105
471.2000	65.173
471.1000	65.1388
471.0000	65.1068
470.9000	65.0781
470.8000	65.0484
470.7000	65.0208
470.6000	64.9958
470.5000	64.9696
470.4000	64.9455
470.3000	64.9215
470.2000	64.8991
470.1000	64.8778
470.0000	64.8568
469.9000	64.8355
469.8000	64.8171
469.7000	64.8003
469.6000	64.7859
469.5000	64.7716
469.4000	64.7498
469.3000	64.7297
469.2000	64.7142
469.1000	64.6955
469.0000	64.6825
468.9000	64.6666
468.8000	64.647
468.7000	64.6266
468.6000	64.6077
468.5000	64.5863
468.4000	64.5617
468.3000	64.5406
468.2000	64.5158
468.1000	64.4855
468.0000	64.4533
467.9000	64.4194
467.8000	64.3905
467.7000	64.3601
467.6000	64.3227
467.5000	64.2881
467.4000	64.2446
467.3000	64.2007
467.2000	64.1637
467.1000	64.1215
467.0000	64.0808
466.9000	64.036
466.8000	63.9948
466.7000	63.9454
466.6000	63.9
466.5000	63.8538
466.4000	63.8105
466.3000	63.764
466.2000	63.7184
466.1000	63.6696
466.0000	63.6234
465.9000	63.5759
465.8000	63.5324
465.7000	63.4914
465.6000	63.4461
465.5000	63.4017
465.4000	63.3592
465.3000	63.3203
465.2000	63.2779
465.1000	63.2396
465.0000	63.2022
464.9000	63.1715
464.8000	63.1363
464.7000	63.1031
464.6000	63.0729
464.5000	63.0439
464.4000	63.019
464.3000	62.9919
464.2000	62.9655
464.1000	62.9408
464.0000	62.9151
463.9000	62.8928
463.8000	62.8714
463.7000	62.8507
463.6000	62.8352
463.5000	62.8177
463.4000	62.8003
463.3000	62.7781
463.2000	62.759
463.1000	62.7442
463.0000	62.7248
462.9000	62.7076
462.8000	62.6853
462.7000	62.6652
462.6000	62.6441
462.5000	62.6243
462.4000	62.6013
462.3000	62.5809
462.2000	62.5587
462.1000	62.5357
462.0000	62.5095
461.9000	62.4818
461.8000	62.4532
461.7000	62.4263
461.6000	62.4003
461.5000	62.3711
461.4000	62.3374
461.3000	62.3045
461.2000	62.2743
461.1000	62.2451
461.0000	62.2157
460.9000	62.1812
460.8000	62.152
460.7000	62.1187
460.6000	62.0834
460.5000	62.0518
460.4000	62.0164
460.3000	61.9884
460.2000	61.9599
460.1000	61.9294
460.0000	61.8987
459.9000	61.8689
459.8000	61.8424
459.7000	61.8181
459.6000	61.7943
459.5000	61.7724
459.4000	61.7511
459.3000	61.7368
459.2000	61.7138
459.1000	61.6974
459.0000	61.682
458.9000	61.6643
458.8000	61.6513
458.7000	61.639
458.6000	61.6255
458.5000	61.6159
458.4000	61.6051
458.3000	61.5963
458.2000	61.5874
458.1000	61.5786
458.0000	61.5701
457.9000	61.5619
457.8000	61.5533
457.7000	61.5393
457.6000	61.5317
457.5000	61.5221
457.4000	61.5126
457.3000	61.5078
457.2000	61.5009
457.1000	61.4899
457.0000	61.4806
456.9000	61.4693
456.8000	61.4576
456.7000	61.4488
456.6000	61.4382
456.5000	61.4267
456.4000	61.4165
456.3000	61.403
456.2000	61.3902
456.1000	61.3803
456.0000	61.3699
455.9000	61.3605
455.8000	61.3487
455.7000	61.334
455.6000	61.3199
455.5000	61.3096
455.4000	61.3018
455.3000	61.2895
455.2000	61.2837
455.1000	61.2687
455.0000	61.2613
454.9000	61.2524
454.8000	61.2421
454.7000	61.2318
454.6000	61.2257
454.5000	61.2233
454.4000	61.2214
454.3000	61.2192
454.2000	61.2157
454.1000	61.214
454.0000	61.2138
453.9000	61.2164
453.8000	61.2151
453.7000	61.2176
453.6000	61.2175
453.5000	61.2241
453.4000	61.2261
453.3000	61.2326
453.2000	61.2373
453.1000	61.2445
453.0000	61.2517
452.9000	61.2534
452.8000	61.2563
452.7000	61.2579
452.6000	61.2619
452.5000	61.2678
452.4000	61.2684
452.3000	61.2694
452.2000	61.2713
452.1000	61.2724
452.0000	61.2687
451.9000	61.2671
451.8000	61.2697
451.7000	61.2684
451.6000	61.2657
451.5000	61.2628
451.4000	61.2508
451.3000	61.2441
451.2000	61.238
451.1000	61.2309
451.0000	61.2241
450.9000	61.2124
450.8000	61.2069
450.7000	61.1999
450.6000	61.1905
450.5000	61.1839
450.4000	61.1783
450.3000	61.1714
450.2000	61.1638
450.1000	61.1554
450.0000	61.1502
449.9000	61.1451
449.8000	61.149
449.7000	61.1481
449.6000	61.1472
449.5000	61.149
449.4000	61.1477
449.3000	61.1526
449.2000	61.1551
449.1000	61.1531
449.0000	61.1601
448.9000	61.1648
448.8000	61.1705
448.7000	61.1768
448.6000	61.1808
448.5000	61.1887
448.4000	61.1961
448.3000	61.2053
448.2000	61.2098
448.1000	61.2151
448.0000	61.2197
447.9000	61.2197
447.8000	61.2273
447.7000	61.2305
447.6000	61.233
447.5000	61.2367
447.4000	61.2362
447.3000	61.2358
447.2000	61.231
447.1000	61.2266
447.0000	61.2258
446.9000	61.2153
446.8000	61.2067
446.7000	61.1926
446.6000	61.1807
446.5000	61.1697
446.4000	61.1533
446.3000	61.1392
446.2000	61.1175
446.1000	61.0985
446.0000	61.0791
445.9000	61.0576
445.8000	61.0317
445.7000	61.0044
445.6000	60.9805
445.5000	60.9536
445.4000	60.9222
445.3000	60.8977
445.2000	60.8725
445.1000	60.8494
445.0000	60.8235
444.9000	60.795
444.8000	60.7742
444.7000	60.7486
444.6000	60.7264
444.5000	60.7055
444.4000	60.6819
444.3000	60.6603
444.2000	60.6441
444.1000	60.6295
444.0000	60.619
443.9000	60.6055
443.8000	60.5954
443.7000	60.5845
443.6000	60.5723
443.5000	60.5572
443.4000	60.5429
443.3000	60.5342
443.2000	60.5187
443.1000	60.5091
443.0000	60.4956
442.9000	60.48
442.8000	60.4658
442.7000	60.4481
442.6000	60.4297
442.5000	60.411
442.4000	60.3846
442.3000	60.3621
442.2000	60.336
442.1000	60.3077
442.0000	60.2761
441.9000	60.2467
441.8000	60.2151
441.7000	60.1771
441.6000	60.1455
441.5000	60.1055
441.4000	60.0702
441.3000	60.0286
441.2000	59.984
441.1000	59.9419
441.0000	59.8974
440.9000	59.8526
440.8000	59.808
440.7000	59.7608
440.6000	59.7086
440.5000	59.6597
440.4000	59.6119
440.3000	59.5634
440.2000	59.5169
440.1000	59.4687
440.0000	59.4132
439.9000	59.3654
439.8000	59.3166
439.7000	59.27
439.6000	59.2275
439.5000	59.1833
439.4000	59.1394
439.3000	59.0974
439.2000	59.0563
439.1000	59.0144
439.0000	58.9777
438.9000	58.939
438.8000	58.9016
438.7000	58.8657
438.6000	58.8288
438.5000	58.7953
438.4000	58.7635
438.3000	58.7287
438.2000	58.6937
438.1000	58.6628
438.0000	58.628
437.9000	58.5961
437.8000	58.5609
437.7000	58.5243
437.6000	58.4889
437.5000	58.4528
437.4000	58.4151
437.3000	58.3764
437.2000	58.3329
437.1000	58.2892
437.0000	58.244
436.9000	58.1988
436.8000	58.1507
436.7000	58.1035
436.6000	58.055
436.5000	57.9995
436.4000	57.9441
436.3000	57.8859
436.2000	57.8313
436.1000	57.7737
436.0000	57.713
435.9000	57.6524
435.8000	57.5944
435.7000	57.5342
435.6000	57.4775
435.5000	57.4179
435.4000	57.36
435.3000	57.3028
435.2000	57.2474
435.1000	57.1935
435.0000	57.1357
434.9000	57.0834
434.8000	57.032
434.7000	56.9868
434.6000	56.9346
434.5000	56.8862
434.4000	56.8417
434.3000	56.8012
434.2000	56.7548
434.1000	56.714
434.0000	56.6734
433.9000	56.6402
433.8000	56.6022
433.7000	56.5618
433.6000	56.5282
433.5000	56.4888
433.4000	56.4576
433.3000	56.4236
433.2000	56.3944
433.1000	56.3586
433.0000	56.3255
432.9000	56.2911
432.8000	56.2543
432.7000	56.2154
432.6000	56.1814
432.5000	56.1448
432.4000	56.1075
432.3000	56.0634
432.2000	56.0232
432.1000	55.9827
432.0000	55.9376
431.9000	55.8937
431.8000	55.8474
431.7000	55.7978
431.6000	55.748
431.5000	55.6958
431.4000	55.6462
431.3000	55.596
431.2000	55.5442
431.1000	55.493
431.0000	55.4394
430.9000	55.3858
430.8000	55.3316
430.7000	55.2806
430.6000	55.2302
430.5000	55.1802
430.4000	55.1357
430.3000	55.0887
430.2000	55.0423
430.1000	55.0032
430.0000	54.9577
429.9000	54.9169
429.8000	54.8797
429.7000	54.8442
429.6000	54.8107
429.5000	54.7783
429.4000	54.7448
429.3000	54.7151
429.2000	54.6879
429.1000	54.6593
429.0000	54.6281
428.9000	54.6005
428.8000	54.5715
428.7000	54.5459
428.6000	54.5178
428.5000	54.4888
428.4000	54.4636
428.3000	54.4384
428.2000	54.4113
428.1000	54.3801
428.0000	54.3502
427.9000	54.3206
427.8000	54.293
427.7000	54.258
427.6000	54.222
427.5000	54.1906
427.4000	54.1594
427.3000	54.1236
427.2000	54.0858
427.1000	54.0457
427.0000	54.0073
426.9000	53.9667
426.8000	53.9287
426.7000	53.8856
426.6000	53.845
426.5000	53.8049
426.4000	53.7669
426.3000	53.7246
426.2000	53.6824
426.1000	53.6421
426.0000	53.6036
425.9000	53.5632
425.8000	53.5247
425.7000	53.4915
425.6000	53.4546
425.5000	53.4227
425.4000	53.3904
425.3000	53.3612
425.2000	53.3286
425.1000	53.3016
425.0000	53.2716
424.9000	53.2468
424.8000	53.2211
424.7000	53.1962
424.6000	53.1741
424.5000	53.1528
424.4000	53.1324
424.3000	53.1107
424.2000	53.0899
424.1000	53.0631
424.0000	53.0413
423.9000	53.0192
423.8000	52.997
423.7000	52.9717
423.6000	52.9474
423.5000	52.9253
423.4000	52.9007
423.3000	52.8715
423.2000	52.8428
423.1000	52.8154
423.0000	52.7849
422.9000	52.756
422.8000	52.7227
422.7000	52.6891
422.6000	52.6559
422.5000	52.6269
422.4000	52.5923
422.3000	52.5569
422.2000	52.523
422.1000	52.4881
422.0000	52.451
421.9000	52.4146
421.8000	52.3811
421.7000	52.3454
421.6000	52.308
421.5000	52.274
421.4000	52.2378
421.3000	52.2036
421.2000	52.1703
421.1000	52.1384
421.0000	52.103
420.9000	52.0686
420.8000	52.0376
420.7000	52.0049
420.6000	51.972
420.5000	51.9421
420.4000	51.9137
420.3000	51.8807
420.2000	51.8459
420.1000	51.8195
420.0000	52.0508
419.9000	52.0188
419.8000	51.9908
419.7000	51.9606
419.6000	51.9327
419.5000	51.8993
419.4000	51.8628
419.3000	51.8261
419.2000	51.79
419.1000	51.7537
419.0000	51.7179
418.9000	51.68
418.8000	51.6382
418.7000	51.5992
418.6000	51.5589
418.5000	51.5115
418.4000	51.4633
418.3000	51.417
418.2000	51.366
418.1000	51.317
418.0000	51.2648
417.9000	51.2148
417.8000	51.1643
417.7000	51.1093
417.6000	51.059
417.5000	51.0037
417.4000	50.9485
417.3000	50.8916
417.2000	50.8391
417.1000	50.7823
417.0000	50.724
416.9000	50.6673
416.8000	50.6156
416.7000	50.5572
416.6000	50.4997
416.5000	50.4448
416.4000	50.3904
416.3000	50.332
416.2000	50.2747
416.1000	50.2201
416.0000	50.1599
415.9000	50.0996
415.8000	50.036
415.7000	49.979
415.6000	49.9199
415.5000	49.8578
415.4000	49.7972
415.3000	49.7342
415.2000	49.666
415.1000	49.6046
415.0000	49.5429
414.9000	49.4753
414.8000	49.406
414.7000	49.338
414.6000	49.2692
414.5000	49.2014
414.4000	49.1338
414.3000	49.0627
414.2000	48.9965
414.1000	48.9252
414.0000	48.8558
413.9000	48.7843
413.8000	48.7129
413.7000	48.643
413.6000	48.5726
413.5000	48.5007
413.4000	48.4276
413.3000	48.3567
413.2000	48.2856
413.1000	48.2144
413.0000	48.143
412.9000	48.0689
412.8000	47.9936
412.7000	47.9244
412.6000	47.8506
412.5000	47.7799
412.4000	47.704
412.3000	47.6346
412.2000	47.5593
412.1000	47.4855
412.0000	47.4155
411.9000	47.3394
411.8000	47.2668
411.7000	47.1936
411.6000	47.1208
411.5000	47.0465
411.4000	46.9743
411.3000	46.9016
411.2000	46.8299
411.1000	46.7584
411.0000	46.6836
410.9000	46.609
410.8000	46.536
410.7000	46.459
410.6000	46.3849
410.5000	46.3135
410.4000	46.2341
410.3000	46.1595
410.2000	46.0826
410.1000	46.0065
410.0000	45.9304
409.9000	45.8549
409.8000	45.775
409.7000	45.6987
409.6000	45.6213
409.5000	45.5441
409.4000	45.4689
409.3000	45.3921
409.2000	45.3171
409.1000	45.2421
409.0000	45.168
408.9000	45.0883
408.8000	45.0158
408.7000	44.9424
408.6000	44.8686
408.5000	44.7916
408.4000	44.7173
408.3000	44.6446
408.2000	44.5721
408.1000	44.4999
408.0000	44.4292
407.9000	44.3545
407.8000	44.2824
407.7000	44.2073
407.6000	44.1351
407.5000	44.0612
407.4000	43.9861
407.3000	43.9149
407.2000	43.8427
407.1000	43.7714
407.0000	43.6969
406.9000	43.6279
406.8000	43.5546
406.7000	43.4818
406.6000	43.409
406.5000	43.3356
406.4000	43.2595
406.3000	43.1896
406.2000	43.117
406.1000	43.0459
406.0000	42.9719
405.9000	42.9002
405.8000	42.8321
405.7000	42.7641
405.6000	42.6921
405.5000	42.6217
405.4000	42.553
405.3000	42.4845
405.2000	42.4151
405.1000	42.3465
405.0000	42.2814
404.9000	42.2157
404.8000	42.1501
404.7000	42.0799
404.6000	42.0147
404.5000	41.9502
404.4000	41.8835
404.3000	41.8189
404.2000	41.75
404.1000	41.6802
404.0000	41.6147
403.9000	41.548
403.8000	41.4827
403.7000	41.4152
403.6000	41.3498
403.5000	41.2849
403.4000	41.2164
403.3000	41.1489
403.2000	41.0821
403.1000	41.018
403.0000	40.9523
402.9000	40.8852
402.8000	40.821
402.7000	40.7552
402.6000	40.6896
402.5000	40.624
402.4000	40.5573
402.3000	40.4919
402.2000	40.4255
402.1000	40.3585
402.0000	40.2909
401.9000	40.2239
401.8000	40.1579
401.7000	40.0919
401.6000	40.0259
401.5000	39.9565
401.4000	39.8876
401.3000	39.8211
401.2000	39.7518
401.1000	39.6834
401.0000	39.618
400.9000	39.5502
400.8000	39.4812
400.7000	39.4106
400.6000	39.3428
400.5000	39.2762
400.4000	39.2116
400.3000	39.1416
400.2000	39.0719
400.1000	39.0039
400.0000	38.9353
399.9000	38.868
399.8000	38.801
399.7000	38.728
399.6000	38.6608
399.5000	38.5916
399.4000	38.52
399.3000	38.4524
399.2000	38.3879
399.1000	38.3197
399.0000	38.2517
398.9000	38.178
398.8000	38.1037
398.7000	38.0339
398.6000	37.9627
398.5000	37.8891
398.4000	37.8177
398.3000	37.7423
398.2000	37.6662
398.1000	37.5957
398.0000	37.5204
397.9000	37.4472
397.8000	37.3746
397.7000	37.2975
397.6000	37.216
397.5000	37.1391
397.4000	37.0589
397.3000	36.9856
397.2000	36.9094
397.1000	36.832
397.0000	36.755
396.9000	36.6789
396.8000	36.6007
396.7000	36.5254
396.6000	36.4463
396.5000	36.3684
396.4000	36.2888
396.3000	36.2088
396.2000	36.1256
396.1000	36.049
396.0000	35.971
395.9000	35.8881
395.8000	35.8071
395.7000	35.7228
395.6000	35.6434
395.5000	35.5592
395.4000	35.4761
395.3000	35.3908
395.2000	35.3051
395.1000	35.2214
395.0000	35.138
394.9000	35.0523
394.8000	34.9671
394.7000	34.8771
394.6000	34.7938
394.5000	34.7022
394.4000	34.6131
394.3000	34.5283
394.2000	34.4422
394.1000	34.3554
394.0000	34.2637
393.9000	34.1752
393.8000	34.0873
393.7000	33.9987
393.6000	33.9112
393.5000	33.8203
393.4000	33.7316
393.3000	33.6427
393.2000	33.5544
393.1000	33.4682
393.0000	33.3761
392.9000	33.2866
392.8000	33.1975
392.7000	33.1037
392.6000	33.0104
392.5000	32.9181
392.4000	32.8261
392.3000	32.7346
392.2000	32.6417
392.1000	32.5472
392.0000	32.4533
391.9000	32.3592
391.8000	32.2627
391.7000	32.1641
391.6000	32.0671
391.5000	31.9719
391.4000	31.8762
391.3000	31.7796
391.2000	31.6855
391.1000	31.5909
391.0000	31.4968
390.9000	31.4002
390.8000	31.3043
390.7000	31.2071
390.6000	31.1089
390.5000	31.0109
390.4000	30.9164
390.3000	30.8214
390.2000	30.7266
390.1000	30.6324
390.0000	30.5345
389.9000	30.4351
389.8000	30.3388
389.7000	30.2448
389.6000	30.1477
389.5000	30.0515
389.4000	29.9528
389.3000	29.8554
389.2000	29.7581
389.1000	29.6621
389.0000	29.5654
388.9000	29.4662
388.8000	29.3676
388.7000	29.2699
388.6000	29.1709
388.5000	29.0735
388.4000	28.9777
388.3000	28.8814
388.2000	28.7865
388.1000	28.6866
388.0000	28.5874
387.9000	28.4909
387.8000	28.3948
387.7000	28.3003
387.6000	28.2062
387.5000	28.1103
387.4000	28.0176
387.3000	27.9244
387.2000	27.8273
387.1000	27.7318
387.0000	27.6369
386.9000	27.5424
386.8000	27.4475
386.7000	27.354
386.6000	27.2555
386.5000	27.1622
386.4000	27.0689
386.3000	26.9744
386.2000	26.8812
386.1000	26.7886
386.0000	26.6935
385.9000	26.599
385.8000	26.5015
385.7000	26.4091
385.6000	26.3168
385.5000	26.2237
385.4000	26.1324
385.3000	26.0407
385.2000	25.9459
385.1000	25.8527
385.0000	25.7625
384.9000	25.6721
384.8000	25.5783
384.7000	25.4864
384.6000	25.3956
384.5000	25.3021
384.4000	25.2093
384.3000	25.1186
384.2000	25.0284
384.1000	24.938
384.0000	24.846
383.9000	24.7542
383.8000	24.6618
383.7000	24.5696
383.6000	24.4794
383.5000	24.3867
383.4000	24.2943
383.3000	24.2021
383.2000	24.1132
383.1000	24.0239
383.0000	23.9322
382.9000	23.8413
382.8000	23.7513
382.7000	23.6624
382.6000	23.5728
382.5000	23.4817
382.4000	23.3912
382.3000	23.3015
382.2000	23.214
382.1000	23.1241
382.0000	23.0349
381.9000	22.9454
381.8000	22.8556
381.7000	22.7663
381.6000	22.6767
381.5000	22.5835
381.4000	22.4929
381.3000	22.401
381.2000	22.3123
381.1000	22.2202
381.0000	22.1293
380.9000	22.0373
380.8000	21.9496
380.7000	21.8596
380.6000	21.7684
380.5000	21.6757
380.4000	21.5838
380.3000	21.4956
380.2000	21.4046
380.1000	21.3133
380.0000	21.2222
379.9000	21.1326
379.8000	21.0422
379.7000	20.951
379.6000	20.8597
379.5000	20.7662
379.4000	20.6738
379.3000	20.5817
379.2000	20.4873
379.1000	20.3912
379.0000	20.295
378.9000	20.2019
378.8000	20.1073
378.7000	20.0128
378.6000	19.9169
378.5000	19.8222
378.4000	19.7243
378.3000	19.627
378.2000	19.5288
378.1000	19.434
378.0000	19.3343
377.9000	19.2387
377.8000	19.1407
377.7000	19.0429
377.6000	18.9432
377.5000	18.8465
377.4000	18.7483
377.3000	18.6494
377.2000	18.5506
377.1000	18.4489
377.0000	18.3491
376.9000	18.2473
376.8000	18.1473
376.7000	18.046
376.6000	17.9434
376.5000	17.8387
376.4000	17.7372
376.3000	17.6314
376.2000	17.5264
376.1000	17.4209
376.0000	17.3151
375.9000	17.2073
375.8000	17.098
375.7000	16.987
375.6000	16.8777
375.5000	16.7638
375.4000	16.6512
375.3000	16.5378
375.2000	16.4238
375.1000	16.3068
375.0000	16.191
374.9000	16.073
374.8000	15.9521
374.7000	15.8306
374.6000	15.7078
374.5000	15.5825
374.4000	15.4576
374.3000	15.3307
374.2000	15.2059
374.1000	15.0785
374.0000	14.9461
373.9000	14.8147
373.8000	14.6816
373.7000	14.5464
373.6000	14.4083
373.5000	14.2695
373.4000	14.1278
373.3000	13.9879
373.2000	13.8435
373.1000	13.6987
373.0000	13.5509
372.9000	13.4036
372.8000	13.2523
372.7000	13.1015
372.6000	12.9459
372.5000	12.7922
372.4000	12.6352
372.3000	12.478
372.2000	12.3182
372.1000	12.1554
372.0000	11.9926
371.9000	11.8287
371.8000	11.6629
371.7000	11.4952
371.6000	11.3272
371.5000	11.1572
371.4000	10.9856
371.3000	10.8131
371.2000	10.6401
371.1000	10.4632
371.0000	10.2872
370.9000	10.1085
370.8000	9.93078
370.7000	9.75121
370.6000	9.57185
370.5000	9.39058
370.4000	9.20826
370.3000	9.02592
370.2000	8.84457
370.1000	8.66057
370.0000	7.93297
369.9000	7.7489
369.8000	7.56715
369.7000	7.38335
369.6000	7.20048
369.5000	7.01585
369.4000	6.83379
369.3000	6.65077
369.2000	6.47008
369.1000	6.29046
369.0000	6.11058
368.9000	5.93105
368.8000	5.75436
368.7000	5.57785
368.6000	5.40425
368.5000	5.23311
368.4000	5.06258
368.3000	4.89396
368.2000	4.7288
368.1000	4.56558
368.0000	4.40488
367.9000	4.24735
367.8000	4.09191
367.7000	3.93953
367.6000	3.78929
367.5000	3.64051
367.4000	3.49587
367.3000	3.35487
367.2000	3.21678
367.1000	3.08198
367.0000	2.94911
366.9000	2.82035
366.8000	2.69526
366.7000	2.57317
366.6000	2.45357
366.5000	2.33662
366.4000	2.22379
366.3000	2.1143
366.2000	2.00824
366.1000	1.90547
366.0000	1.80604
365.9000	1.71079
365.8000	1.61828
365.7000	1.52863
365.6000	1.44165
365.5000	1.35852
365.4000	1.27871
365.3000	1.20192
365.2000	1.12822
365.1000	1.05764
365.0000	0.989454
364.9000	0.924866
364.8000	0.862974
364.7000	0.803818
364.6000	0.747921
364.5000	0.69401
364.4000	0.643446
364.3000	0.59564
364.2000	0.550339
364.1000	0.507129
364.0000	0.467022
363.9000	0.429031
363.8000	0.393232
363.7000	0.359678
363.6000	0.32809
363.5000	0.298689
363.4000	0.271348
363.3000	0.245924
363.2000	0.222686
363.1000	0.20102
363.0000	0.18058
362.9000	0.162211
362.8000	0.145018
362.7000	0.129183
362.6000	0.114894
362.5000	0.102002
362.4000	0.0900811
362.3000	0.079419
362.2000	0.0697027
362.1000	0.0610467
362.0000	0.0531996
361.9000	0.0463138
361.8000	0.0400228
361.7000	0.0346684
361.6000	0.0297216
361.5000	0.0254897
361.4000	0.0218044
361.3000	0.0186336
361.2000	0.015833
361.1000	0.0134262
361.0000	0.0113386
360.9000	0.00949809
360.8000	0.00802985
360.7000	0.00668468
360.6000	0.00556344
360.5000	0.00461399
360.4000	0.00383705
360.3000	0.00319483
360.2000	0.00270874
360.1000	0.00217385
360.0000	0.00183296
359.9000	0.00149251
359.8000	0.00120047
359.7000	0.00100584
359.6000	0.000835073
359.5000	0.000689144
359.4000	0.00056729
359.3000	0.000470435
359.2000	0.000373344
359.1000	0.000373164
359.0000	0.000252459
358.9000	0.000179438
358.8000	0.000130525
358.7000	8.14255E-005
358.6000	3.25296E-005
358.5000	8.47857E-006
358.4000	-1.52757E-005
358.3000	-1.53295E-005
358.2000	-1.6045E-005
358.1000	7.89041E-006
358.0000	-1.57025E-005
357.9000	-0.000112732
357.8000	-0.000161043
357.7000	-0.000210144
357.6000	-0.000186261
357.5000	-0.000283665
357.4000	-0.000260554
357.3000	-0.000236062
357.2000	-0.000260419
357.1000	-0.000284637
357.0000	-0.000309043
356.9000	-0.000285438
356.8000	-0.000285694
356.7000	-0.000309817
356.6000	-0.000333521
356.5000	-0.000382204
356.4000	-0.000431497
356.3000	-0.000456202
356.2000	-0.000432375
356.1000	-0.000407754
356.0000	-0.000407933
355.9000	-0.000407735
355.8000	-0.000383216
355.7000	-0.000383274
355.6000	-0.000480833
355.5000	-0.000456905
355.4000	-0.000456932
355.3000	-0.000456749
355.2000	-0.000481134
355.1000	-0.000432344
355.0000	-0.000432664
354.9000	-0.00045699
354.8000	-0.000360093
354.7000	-0.000262679
354.6000	-0.00026134
354.5000	-0.000285544
354.4000	-0.000358454
354.3000	-0.00035918
354.2000	-0.000383763
354.1000	-0.000383661
354.0000	-0.000285771
353.9000	-0.000334435
353.8000	-0.000383075
353.7000	-0.000432221
353.6000	-0.000480762
353.5000	-0.000529623
353.4000	-0.000505264
353.3000	-0.000505201
353.2000	-0.000577541
353.1000	-0.000650718
353.0000	-0.000700303
352.9000	-0.000724882
352.8000	-0.000700977
352.7000	-0.000701055
352.6000	-0.000676566
352.5000	-0.000750079
352.4000	-0.000774271
352.3000	-0.000724917
352.2000	-0.000749877
352.1000	-0.000773879
352.0000	-0.000749852
351.9000	-0.000750116
351.8000	-0.000773966
351.7000	-0.000773977
351.6000	-0.000749877
351.5000	-0.000726296
351.4000	-0.000726215
351.3000	-0.000750356
351.2000	-0.000701398
351.1000	-0.000627918
351.0000	-0.000579273
350.9000	-0.000530188
350.8000	-0.000530583
350.7000	-0.00053063
350.6000	-0.000530189
350.5000	-0.000457445
350.4000	-0.000481707
350.3000	-0.000530088
350.2000	-0.00055453
350.1000	-0.000530352
350.0000	-0.000530333
349.9000	-0.000602822
349.8000	-0.000602843
349.7000	-0.000627666
349.6000	-0.000651759
349.5000	-0.000749566
349.4000	-0.000797887
349.3000	-0.000822817
349.2000	-0.000822722
349.1000	-0.000872224
349.0000	-0.000774357
348.9000	-0.000823165
348.8000	-0.0008722
348.7000	-0.000871616
348.6000	-0.00089677
348.5000	-0.000945569
348.4000	-0.000945623
348.3000	-0.000872219
348.2000	-0.000921389
348.1000	-0.00084823
348.0000	-0.000897424
347.9000	-0.000823877
347.8000	-0.000848943
347.7000	-0.000848536
347.6000	-0.000848718
347.5000	-0.000872127
347.4000	-0.000872384
347.3000	-0.000847919
347.2000	-0.000701472
347.1000	-0.000628972
347.0000	-0.000604167
346.9000	-0.000579164
346.8000	-0.000652256
346.7000	-0.000701322
346.6000	-0.000652366
346.5000	-0.000676754
346.4000	-0.000676662
346.3000	-0.000700975
346.2000	-0.00067666
346.1000	-0.000652174
346.0000	-0.000627429
345.9000	-0.000627515
345.8000	-0.000676656
345.7000	-0.000700835
345.6000	-0.000749647
345.5000	-0.000798489
345.4000	-0.000822944
345.3000	-0.000872669
345.2000	-0.000823828
345.1000	-0.000775104
345.0000	-0.000750231
344.9000	-0.000774372
344.8000	-0.00074983
344.7000	-0.000774459
344.6000	-0.00079865
344.5000	-0.00082362
344.4000	-0.000848431
344.3000	-0.000848497
344.2000	-0.000848112
344.1000	-0.000823621
344.0000	-0.000872222
343.9000	-0.000848255
343.8000	-0.000823812
343.7000	-0.000750357
343.6000	-0.000725801
343.5000	-0.000749931
343.4000	-0.000798976
343.3000	-0.000726053
343.2000	-0.000701782
343.1000	-0.000726181
343.0000	-0.000750981
342.9000	-0.000750817
342.8000	-0.000751271
342.7000	-0.00070294
342.6000	-0.000726975
342.5000	-0.000775977
342.4000	-0.000776265
342.3000	-0.000800004
342.2000	-0.00079999
342.1000	-0.000824849
342.0000	-0.000825128
341.9000	-0.000776081
341.8000	-0.000727156
341.7000	-0.000775777
341.6000	-0.000824425
341.5000	-0.000824329
341.4000	-0.000750946
341.3000	-0.000750309
341.2000	-0.000725463
341.1000	-0.000773719
341.0000	-0.000774817
340.9000	-0.000799378
340.8000	-0.000774715
340.7000	-0.000774642
340.6000	-0.000774411
340.5000	-0.000749888
340.4000	-0.000724963
340.3000	-0.000749165
340.2000	-0.00079808
340.1000	-0.00079868
340.0000	0.00494653
339.9000	0.00504527
339.8000	0.00502018
339.7000	0.00499564
339.6000	0.0049446
339.5000	0.00494402
339.4000	0.00494434
339.3000	0.00494343
339.2000	0.00484424
339.1000	0.00486664
339.0000	0.00491582
338.9000	0.00486821
338.8000	0.00489353
338.7000	0.00494167
338.6000	0.00498826
338.5000	0.00503702
338.4000	0.00493902
338.3000	0.00484168
338.2000	0.00479139
338.1000	0.00476658
338.0000	0.00474343
337.9000	0.00476836
337.8000	0.00471799
337.7000	0.00461951
337.6000	0.00469189
337.5000	0.00464244
337.4000	0.00466557
337.3000	0.00463888
337.2000	0.00461368
337.1000	0.00456499
337.0000	0.00456564
336.9000	0.00456468
336.8000	0.00463868
336.7000	0.00461366
336.6000	0.00456446
336.5000	0.00451431
336.4000	0.00453723
336.3000	0.00451302
336.2000	0.00448791
336.1000	0.00453726
336.0000	0.00448798
335.9000	0.00458451
335.8000	0.00453354
335.7000	0.00451045
335.6000	0.00450959
335.5000	0.00453279
335.4000	0.00445914
335.3000	0.00436014
335.2000	0.00428611
335.1000	0.00423616
335.0000	0.00430877
334.9000	0.00438327
334.8000	0.0043334
334.7000	0.0042831
334.6000	0.00438019
334.5000	0.00437903
334.4000	0.00437909
334.3000	0.00433106
334.2000	0.00430735
334.1000	0.00438111
334.0000	0.00435634
333.9000	0.00428329
333.8000	0.00425694
333.7000	0.00433062
333.6000	0.00433043
333.5000	0.00430531
333.4000	0.00425611
333.3000	0.00423031
333.2000	0.00418131
333.1000	0.00410837
333.0000	0.00403527
332.9000	0.0039839
332.8000	0.00400649
332.7000	0.00395709
332.6000	0.0039823
332.5000	0.00393209
332.4000	0.00397948
332.3000	0.00400239
332.2000	0.0040271
332.1000	0.00395314
332.0000	0.00395153
331.9000	0.00399942
331.8000	0.00402191
331.7000	0.00397297
331.6000	0.00399674
331.5000	0.00402231
331.4000	0.0039973
331.3000	0.00404842
331.2000	0.0040245
331.1000	0.00399858
331.0000	0.003949
330.9000	0.00392281
330.8000	0.00387397
330.7000	0.00387472
330.6000	0.00387341
330.5000	0.00387333
330.4000	0.00380114
330.3000	0.00380001
330.2000	0.00377566
330.1000	0.00379871
330.0000	0.00382168
329.9000	0.00379305
329.8000	0.00374395
329.7000	0.00371991
329.6000	0.0036708
329.5000	0.00372084
329.4000	0.00362036
329.3000	0.00364375
329.2000	0.00364493
329.1000	0.00366839
329.0000	0.00367001
328.9000	0.00364425
328.8000	0.00369048
328.7000	0.00361766
328.6000	0.00359444
328.5000	0.00364485
328.4000	0.00366958
328.3000	0.00369525
328.2000	0.00371869
328.1000	0.00369381
328.0000	0.00374334
327.9000	0.00366797
327.8000	0.00369327
327.7000	0.00364558
327.6000	0.00369155
327.5000	0.00364287
327.4000	0.00361705
327.3000	0.00361577
327.2000	0.00366668
327.1000	0.00371753
327.0000	0.00374204
326.9000	0.00364316
326.8000	0.00351984
326.7000	0.00349625
326.6000	0.00354578
326.5000	0.00354512
326.4000	0.0035448
326.3000	0.00361853
326.2000	0.00364364
326.1000	0.00361863
326.0000	0.0035949
325.9000	0.00361812
325.8000	0.00369053
325.7000	0.00369043
325.6000	0.00361487
325.5000	0.00361495
325.4000	0.00361281
325.3000	0.00358859
325.2000	0.00368458
325.1000	0.00373165
325.0000	0.00373064
324.9000	0.00375469
324.8000	0.00373085
324.7000	0.00361064
324.6000	0.00361023
324.5000	0.00363414
324.4000	0.00356181
324.3000	0.00353798
324.2000	0.00351433
324.1000	0.00349018
324.0000	0.0033949
323.9000	0.0033463
323.8000	0.00327465
323.7000	0.00332194
323.6000	0.00327434
323.5000	0.00320314
323.4000	0.00308389
323.3000	0.00301139
323.2000	0.0030103
323.1000	0.00298613
323.0000	0.00296238
322.9000	0.00293857
322.8000	0.00293873
322.7000	0.0028906
322.6000	0.00284203
322.5000	0.00281728
322.4000	0.00279258
322.3000	0.00276862
322.2000	0.00272143
322.1000	0.00272177
322.0000	0.00274543
321.9000	0.00276865
321.8000	0.0028884
321.7000	0.00286493
321.6000	0.00281741
321.5000	0.00286536
321.4000	0.00288912
321.3000	0.00288852
321.2000	0.00284026
321.1000	0.00286474
321.0000	0.00284128
320.9000	0.00286587
320.8000	0.00298588
320.7000	0.00293785
320.6000	0.00293722
320.5000	0.00293761
320.4000	0.0029378
320.3000	0.00288964
320.2000	0.00288906
320.1000	0.00286501
320.0000	0.00281754
319.9000	0.00281795
319.8000	0.00279308
319.7000	0.00276977
319.6000	0.00279453
319.5000	0.00279425
319.4000	0.00281775
319.3000	0.0028414
319.2000	0.00284175
319.1000	0.002866
319.0000	0.00291441
318.9000	0.00293804
318.8000	0.00286582
318.7000	0.0028897
318.6000	0.00274602
318.5000	0.00274558
318.4000	0.00276882
318.3000	0.00269689
318.2000	0.00267357
318.1000	0.0026735
318.0000	0.00264877
317.9000	0.00267268
317.8000	0.00262497
317.7000	0.00257685
317.6000	0.00255248
317.5000	0.00260018
317.4000	0.00262393
317.3000	0.00248079
317.2000	0.00252832
317.1000	0.00252835
317.0000	0.00262505
316.9000	0.00264956
316.8000	0.00265049
316.7000	0.00269846
316.6000	0.00281825
316.5000	0.00279376
316.4000	0.00289016
316.3000	0.00281859
316.2000	0.00286646
316.1000	0.00284295
316.0000	0.0027715
315.9000	0.0026994
315.8000	0.00262737
315.7000	0.00267505
315.6000	0.00260389
315.5000	0.00253263
315.4000	0.0024595
315.3000	0.00245882
315.2000	0.00250611
315.1000	0.00253041
315.0000	0.00241086
314.9000	0.00245884
314.8000	0.00241029
314.7000	0.00241012
314.6000	0.00231455
314.5000	0.00226666
314.4000	0.0023142
314.3000	0.00233792
314.2000	0.00240956
314.1000	0.00236159
314.0000	0.00231294
313.9000	0.00236046
313.8000	0.00240855
313.7000	0.0024564
313.6000	0.00240837
313.5000	0.00233604
313.4000	0.00235976
313.3000	0.00235988
313.2000	0.00224017
313.1000	0.00231138
313.0000	0.0024304
312.9000	0.00247813
312.8000	0.00245401
312.7000	0.00240665
312.6000	0.0024064
312.5000	0.00247739
312.4000	0.00257355
312.3000	0.00259712
312.2000	0.00257268
312.1000	0.00250066
312.0000	0.00254824
311.9000	0.00262005
311.8000	0.00247698
311.7000	0.00242857
311.6000	0.00245274
311.5000	0.00235696
311.4000	0.00228456
311.3000	0.00225983
311.2000	0.00225982
311.1000	0.00223573
311.0000	0.00221199
310.9000	0.00218844
310.8000	0.0021401
310.7000	0.00211604
310.6000	0.00209284
310.5000	0.00204518
310.4000	0.00197353
310.3000	0.00199714
310.2000	0.00206796
310.1000	0.00209193
310.0000	0.00211533
309.9000	0.00216259
309.8000	0.00206803
309.7000	0.00209217
309.6000	0.00204388
309.5000	0.00216282
309.4000	0.00209078
309.3000	0.00204274
309.2000	0.00199516
309.1000	0.00197076
309.0000	0.002018
308.9000	0.0021138
308.8000	0.00211329
308.7000	0.00206504
308.6000	0.00204129
308.5000	0.00201678
308.4000	0.00204055
308.3000	0.00196944
308.2000	0.00204033
308.1000	0.00206427
308.0000	0.00208838
307.9000	0.00204059
307.8000	0.00206412
307.7000	0.00208754
307.6000	0.00211114
307.5000	0.0021112
307.4000	0.0020869
307.3000	0.00201496
307.2000	0.0020149
307.1000	0.00196732
307.0000	0.00194287
306.9000	0.00189505
306.8000	0.00179959
306.7000	0.00184738
306.6000	0.0018237
306.5000	0.00179949
306.4000	0.00179868
306.3000	0.00179818
306.2000	0.00175117
306.1000	0.00175141
306.0000	0.0016557
305.9000	0.00163143
305.8000	0.001584
305.7000	0.0016072
305.6000	0.00160673
305.5000	0.00160673
305.4000	0.00160677
305.3000	0.00155917
305.2000	0.00165409
305.1000	0.00162996
305.0000	0.00162994
304.9000	0.00162942
304.8000	0.00160586
304.7000	0.00153458
304.6000	0.00160578
304.5000	0.00155715
304.4000	0.0016997
304.3000	0.00174787
304.2000	0.0017478
304.1000	0.00169976
304.0000	0.00165242
303.9000	0.00162832
303.8000	0.00162824
303.7000	0.00165241
303.6000	0.00162805
303.5000	0.00160387
303.4000	0.0016511
303.3000	0.00158033
303.2000	0.00160402
303.1000	0.00162758
303.0000	0.00155601
302.9000	0.00158005
302.8000	0.0015322
302.7000	0.00153118
302.6000	0.00155469
302.5000	0.0015786
302.4000	0.00157881
302.3000	0.00153114
302.2000	0.00155415
302.1000	0.00162471
302.0000	0.00169639
301.9000	0.00169643
301.8000	0.00162498
301.7000	0.00174315
301.6000	0.0016715
301.5000	0.00169501
301.4000	0.00174204
301.3000	0.0017186
301.2000	0.00171891
301.1000	0.00171925
301.0000	0.00171892
300.9000	0.00169509
300.8000	0.00164723
300.7000	0.0017179
300.6000	0.00176582
300.5000	0.00171804
300.4000	0.0016228
300.3000	0.0016466
300.2000	0.00162286
300.1000	0.00148059
300.0000	0.00152797
299.9000	0.00150426
299.8000	0.00145694
299.7000	0.00143305
299.6000	0.00143288
299.5000	0.00136204
299.4000	0.00133852
299.3000	0.0013149
299.2000	0.00141033
299.1000	0.00136301
299.0000	0.00129172
298.9000	0.00129245
298.8000	0.00131614
298.7000	0.00136339
298.6000	0.00138677
298.5000	0.00145733
298.4000	0.00148086
298.3000	0.00150416
298.2000	0.00150419
298.1000	0.00164588
298.0000	0.00162214
297.9000	0.00164583
297.8000	0.00166929
297.7000	0.00174017
297.6000	0.001716
297.5000	0.00174031
297.4000	0.0017877
297.3000	0.00178713
297.2000	0.00176365
297.1000	0.00169193
297.0000	0.00171608
296.9000	0.00164512
296.8000	0.00162144
296.7000	0.00159792
296.6000	0.00159801
296.5000	0.00152732
296.4000	0.00155096
296.3000	0.00157418
296.2000	0.00157384
296.1000	0.0015029
296.0000	0.00152672
295.9000	0.00147842
295.8000	0.00147801
295.7000	0.00147814
295.6000	0.00143093
295.5000	0.00145529
295.4000	0.00147836
295.3000	0.0014783
295.2000	0.00150176
295.1000	0.00150212
295.0000	0.00154898
294.9000	0.0015255
294.8000	0.00145453
294.7000	0.00138391
294.6000	0.00135989
294.5000	0.00140737
294.4000	0.00138334
294.3000	0.00150238
294.2000	0.00143214
294.1000	0.00136092
294.0000	0.00138444
293.9000	0.0013605
293.8000	0.00133632
293.7000	0.00140743
293.6000	0.00133631
293.5000	0.0013122
293.4000	0.00128888
293.3000	0.00124146
293.2000	0.00119347
293.1000	0.00126441
293.0000	0.00124109
292.9000	0.00121658
292.8000	0.00124037
292.7000	0.00119311
292.6000	0.00124021
292.5000	0.0012637
292.4000	0.00128681
292.3000	0.00133419
292.2000	0.00135856
292.1000	0.00128693
292.0000	0.00128712
291.9000	0.00128758
291.8000	0.00126311
291.7000	0.00123916
291.6000	0.00128726
291.5000	0.00128709
291.4000	0.00131078
291.3000	0.00126346
291.2000	0.00119225
291.1000	0.00112165
291.0000	0.00105041
290.9000	0.00107423
290.8000	0.0010272
290.7000	0.000932591
290.6000	0.000885325
290.5000	0.000909428
290.4000	0.000980532
290.3000	0.000980166
290.2000	0.000957002
290.1000	0.000980401
290.0000	0.00105091
289.9000	0.00102744
289.8000	0.00100359
289.7000	0.0010041
289.6000	0.00102759
289.5000	0.00105066
289.4000	0.00109819
289.3000	0.00107453
289.2000	0.00112129
289.1000	0.00114446
289.0000	0.00116827
288.9000	0.00121572
288.8000	0.00114482
288.7000	0.00112157
288.6000	0.00112183
288.5000	0.00114573
288.4000	0.00105113
288.3000	0.0010034
288.2000	0.00102713
288.1000	0.00102726
288.0000	0.00102755
287.9000	0.00102773
287.8000	0.00100358
287.7000	0.00105086
287.6000	0.00100423
287.5000	0.00100478
287.4000	0.000981083
287.3000	0.000933769
287.2000	0.000933591
287.1000	0.000957025
287.0000	0.00100379
286.9000	0.000956045
286.8000	0.000980212
286.7000	0.00100429
286.6000	0.000980702
286.5000	0.000933168
286.4000	0.000932377
286.3000	0.000955491
286.2000	0.00102708
286.1000	0.00100352
286.0000	0.00102731
285.9000	0.00102724
285.8000	0.00105022
285.7000	0.00105025
285.6000	0.00107347
285.5000	0.00107326
285.4000	0.000979255
285.3000	0.00105078
285.2000	0.00107422
285.1000	0.0011213
285.0000	0.00112164
284.9000	0.00116831
284.8000	0.00114532
284.7000	0.00112207
284.6000	0.00105109
284.5000	0.00100376
284.4000	0.000979608
284.3000	0.000979159
284.2000	0.000955968
284.1000	0.000932491
284.0000	0.00093303
283.9000	0.000956388
283.8000	0.000979587
283.7000	0.00100321
283.6000	0.00100325
283.5000	0.000955646
283.4000	0.000955749
283.3000	0.000908738
283.2000	0.000908564
283.1000	0.000908246
283.0000	0.000907681
282.9000	0.000907692
282.8000	0.000978528
282.7000	0.000954837
282.6000	0.000930976
282.5000	0.000954493
282.4000	0.000930435
282.3000	0.000907483
282.2000	0.000907472
282.1000	0.000836612
282.0000	0.000812646
281.9000	0.000812842
281.8000	0.000812316
281.7000	0.000859528
281.6000	0.000812868
281.5000	0.000765747
281.4000	0.000765786
281.3000	0.000765506
281.2000	0.000742312
281.1000	0.000718719
281.0000	0.00067155
280.9000	0.000695119
280.8000	0.000695279
280.7000	0.00060047
280.6000	0.000624064
280.5000	0.000623592
280.4000	0.000623784
280.3000	0.000576645
280.2000	0.00055328
280.1000	0.000529612
280.0000	0.000576561
279.9000	0.000623764
279.8000	0.000647526
279.7000	0.000671347
279.6000	0.000600056
279.5000	0.000647866
279.4000	0.000742563
279.3000	0.000765651
279.2000	0.000717983
279.1000	0.000811982
279.0000	0.000788378
278.9000	0.000764926
278.8000	0.000717343
278.7000	0.000740828
278.6000	0.000740361
278.5000	0.000740255
278.4000	0.00076413
278.3000	0.000787796
278.2000	0.000740365
278.1000	0.000740275
278.0000	0.000740145
277.9000	0.000715995
277.8000	0.000668517
277.7000	0.000621962
277.6000	0.00066922
277.5000	0.000645479
277.4000	0.000692478
277.3000	0.000692657
277.2000	0.000764262
277.1000	0.000788097
277.0000	0.000788154
276.9000	0.000788607
276.8000	0.000788539
276.7000	0.000694031
276.6000	0.000764949
276.5000	0.000741604
276.4000	0.000741527
276.3000	0.000788485
276.2000	0.000764861
276.1000	0.000717363
276.0000	0.000741696
275.9000	0.000718322
275.8000	0.000718603
275.7000	0.00069466
275.6000	0.000670091
275.5000	0.0006226
275.4000	0.000622619
275.3000	0.000599151
275.2000	0.0005991
275.1000	0.000598612
275.0000	0.000598273
274.9000	0.000645195
274.8000	0.00062176
274.7000	0.000550939
274.6000	0.00059762
274.5000	0.000597898
274.4000	0.000527081
274.3000	0.000527185
274.2000	0.000503419
274.1000	0.000550267
274.0000	0.000574114
273.9000	0.000620961
273.8000	0.00064444
273.7000	0.000667908
273.6000	0.00062048
273.5000	0.000667765
273.4000	0.000667373
273.3000	0.000643342
273.2000	0.000667476
273.1000	0.000691362
273.0000	0.000714977
272.9000	0.000738052
272.8000	0.000784967
272.7000	0.000761039
272.6000	0.000784927
272.5000	0.000761806
272.4000	0.000691135
272.3000	0.000644554
272.2000	0.000644981
272.1000	0.000644596
272.0000	0.0006915
271.9000	0.000667731
271.8000	0.000573921
271.7000	0.000574494
271.6000	0.000620934
271.5000	0.000668127
271.4000	0.000620785
271.3000	0.000597345
271.2000	0.00057335
271.1000	0.000667554
271.0000	0.000667012
270.9000	0.000690955
270.8000	0.000714645
270.7000	0.000713757
270.6000	0.000736351
270.5000	0.000783738
270.4000	0.000760844
270.3000	0.000785084
270.2000	0.000878796
270.1000	0.000925321
270.0000	0.000878933
269.9000	0.000831738
269.8000	0.000808464
269.7000	0.000784746
269.6000	0.000808855
269.5000	0.000738484
269.4000	0.000715295
269.3000	0.000714693
269.2000	0.000738254
269.1000	0.000785521
269.0000	0.000762561
268.9000	0.000715666
268.8000	0.000691468
268.7000	0.000691003
268.6000	0.000668558
268.5000	0.00062183
268.4000	0.000574296
268.3000	0.000621266
268.2000	0.000668283
268.1000	0.000668806
268.0000	0.000621365
267.9000	0.000574151
267.8000	0.000573602
267.7000	0.000573948
267.6000	0.000573975
267.5000	0.000527003
267.4000	0.000503119
267.3000	0.000526359
267.2000	0.000527043
267.1000	0.000527241
267.0000	0.000455447
266.9000	0.000477972
266.8000	0.000548867
266.7000	0.000525795
266.6000	0.00047904
266.5000	0.000478835
266.4000	0.00050225
266.3000	0.000548863
266.2000	0.000549096
266.1000	0.000525121
266.0000	0.00052527
265.9000	0.000525587
265.8000	0.000454861
265.7000	0.000478413
265.6000	0.000501622
265.5000	0.00050172
265.4000	0.000548952
265.3000	0.000549869
265.2000	0.000526334
265.1000	0.000478274
265.0000	0.000477998
264.9000	0.00050159
264.8000	0.000478482
264.7000	0.000455297
264.6000	0.000431924
264.5000	0.00045555
264.4000	0.000455577
264.3000	0.000455689
264.2000	0.000526667
264.1000	0.000455391
264.0000	0.000431485
263.9000	0.000431344
263.8000	0.000431382
263.7000	0.000407555
263.6000	0.000431044
263.5000	0.000455202
263.4000	0.000408113
263.3000	0.000431468
263.2000	0.00045505
263.1000	0.000479007
263.0000	0.000454914
262.9000	0.000431383
262.8000	0.000407791
262.7000	0.00040804
262.6000	0.000407918
262.5000	0.000455513
262.4000	0.000431744
262.3000	0.000455315
262.2000	0.00038516
262.1000	0.000385303
262.0000	0.000361521
261.9000	0.000361469
261.8000	0.000432069
261.7000	0.000455337
261.6000	0.000478325
261.5000	0.000525678
261.4000	0.000502551
261.3000	0.000526143
261.2000	0.000502322
261.1000	0.000478137
261.0000	0.000454766
260.9000	0.000431187
260.8000	0.000455353
260.7000	0.000431929
260.6000	0.000525517
260.5000	0.000525688
260.4000	0.000525676
260.3000	0.00047844
260.2000	0.000478305
260.1000	0.000478152
260.0000	0.000502576
259.9000	0.000432037
259.8000	0.000455463
259.7000	0.000454992
259.6000	0.000548995
259.5000	0.000596529
259.4000	0.000596906
259.3000	0.000596923
259.2000	0.000620647
259.1000	0.00066752
259.0000	0.0006209
258.9000	0.000596631
258.8000	0.000596552
258.7000	0.000667408
258.6000	0.000644241
258.5000	0.000620787
258.4000	0.00054938
258.3000	0.000572442
258.2000	0.000643629
258.1000	0.00059666
258.0000	0.000479099
257.9000	0.000479189
257.8000	0.000502343
257.7000	0.0005495
257.6000	0.000525174
257.5000	0.000454397
257.4000	0.000454195
257.3000	0.000454848
257.2000	0.000478688
257.1000	0.000431649
257.0000	0.00040804
256.9000	0.000384085
256.8000	0.000478845
256.7000	0.00050278
256.6000	0.000455241
256.5000	0.000478782
256.4000	0.00052607
256.3000	0.000572949
256.2000	0.000525689
256.1000	0.000407605
256.0000	0.000384449
255.9000	0.00036138
255.8000	0.00038506
255.7000	0.000408199
255.6000	0.00038421
255.5000	0.000407456
255.4000	0.000454913
255.3000	0.000455047
255.2000	0.000407797
255.1000	0.000383676
255.0000	0.000383964
254.9000	0.00036049
254.8000	0.000383914
254.7000	0.000336952
254.6000	0.000431845
254.5000	0.000455599
254.4000	0.000502597
254.3000	0.000573596
254.2000	0.000573855
254.1000	0.000574716
254.0000	0.000551699
253.9000	0.000552022
253.8000	0.000551609
253.7000	0.000575891
253.6000	0.000528508
253.5000	0.000528772
253.4000	0.000529083
253.3000	0.000576678
253.2000	0.000577142
253.1000	0.000529544
253.0000	0.000529399
252.9000	0.00055273
252.8000	0.00055285
252.7000	0.000505445
252.6000	0.000505696
252.5000	0.000529023
252.4000	0.00055221
252.3000	0.000528392
252.2000	0.000528854
252.1000	0.000504907
252.0000	0.000552133
251.9000	0.000528988
251.8000	0.000551991
251.7000	0.000551953
251.6000	0.000551344
251.5000	0.00059918
251.4000	0.000575223
251.3000	0.000599263
251.2000	0.000575602
251.1000	0.000575712
251.0000	0.000599384
250.9000	0.000599644
250.8000	0.000599333
250.7000	0.000670282
250.6000	0.000693965
250.5000	0.000717859
250.4000	0.000694325
250.3000	0.000717928
250.2000	0.000741482
250.1000	0.000741197
250.0000	0.000717878
