TITLE	13.5_NP_0
DATA TYPE	ULTRAVIOLET SPECTRUM
ORIGIN	JASCO
OWNER	
DATE	21/05/03
TIME	15:14:40
SPECTROMETER/DATA SYSTEM	
RESOLUTION	
DELTAX	-0.1
XUNITS	NANOMETERS
YUNITS	TRANSMITTANCE
FIRSTX	  850.0000
LASTX	  250.0000
NPOINTS	    6001
FIRSTY	    78.11445
MAXY	    84.94713
MINY	    -0.00028
XYDATA
850.0000	78.1144
849.9000	78.2828
849.8000	78.4525
849.7000	78.6046
849.6000	78.7655
849.5000	78.9176
849.4000	79.0632
849.3000	79.2169
849.2000	79.3785
849.1000	79.5298
849.0000	79.6855
848.9000	79.829
848.8000	79.9668
848.7000	80.1054
848.6000	80.2424
848.5000	80.3797
848.4000	80.5235
848.3000	80.6626
848.2000	80.791
848.1000	80.9189
848.0000	81.0557
847.9000	81.1965
847.8000	81.3197
847.7000	81.4474
847.6000	81.5622
847.5000	81.6769
847.4000	81.7946
847.3000	81.9238
847.2000	82.0397
847.1000	82.1684
847.0000	82.2813
846.9000	82.3836
846.8000	82.4941
846.7000	82.5892
846.6000	82.6814
846.5000	82.7795
846.4000	82.8654
846.3000	82.9442
846.2000	83.0308
846.1000	83.1132
846.0000	83.191
845.9000	83.2659
845.8000	83.3267
845.7000	83.3819
845.6000	83.4337
845.5000	83.4869
845.4000	83.5359
845.3000	83.5831
845.2000	83.6118
845.1000	83.6409
845.0000	83.674
844.9000	83.7026
844.8000	83.7203
844.7000	83.7441
844.6000	83.7513
844.5000	83.7519
844.4000	83.7505
844.3000	83.7528
844.2000	83.7491
844.1000	83.7397
844.0000	83.7262
843.9000	83.7029
843.8000	83.6753
843.7000	83.6479
843.6000	83.6166
843.5000	83.5804
843.4000	83.543
843.3000	83.4908
843.2000	83.4501
843.1000	83.4007
843.0000	83.3544
842.9000	83.296
842.8000	83.2385
842.7000	83.1716
842.6000	83.1025
842.5000	83.0264
842.4000	82.9531
842.3000	82.8729
842.2000	82.7927
842.1000	82.7146
842.0000	82.6297
841.9000	82.5369
841.8000	82.4496
841.7000	82.3518
841.6000	82.2486
841.5000	82.1331
841.4000	82.0225
841.3000	81.9159
841.2000	81.7987
841.1000	81.6822
841.0000	81.562
840.9000	81.4439
840.8000	81.3212
840.7000	81.1977
840.6000	81.0729
840.5000	80.9402
840.4000	80.8158
840.3000	80.6892
840.2000	80.5536
840.1000	80.4239
840.0000	80.2897
839.9000	80.1624
839.8000	80.026
839.7000	79.8872
839.6000	79.7498
839.5000	79.613
839.4000	79.474
839.3000	79.3338
839.2000	79.1966
839.1000	79.0542
839.0000	78.917
838.9000	78.772
838.8000	78.6172
838.7000	78.4808
838.6000	78.336
838.5000	78.201
838.4000	78.0641
838.3000	77.9262
838.2000	77.7868
838.1000	77.6479
838.0000	77.5163
837.9000	77.3768
837.8000	77.246
837.7000	77.1151
837.6000	76.9873
837.5000	76.8643
837.4000	76.7336
837.3000	76.6121
837.2000	76.4981
837.1000	76.3735
837.0000	76.262
836.9000	76.1455
836.8000	76.0344
836.7000	75.9199
836.6000	75.8124
836.5000	75.6989
836.4000	75.587
836.3000	75.4867
836.2000	75.3826
836.1000	75.2916
836.0000	75.1988
835.9000	75.1091
835.8000	75.0229
835.7000	74.9375
835.6000	74.848
835.5000	74.769
835.4000	74.6867
835.3000	74.618
835.2000	74.5467
835.1000	74.488
835.0000	74.4317
834.9000	74.386
834.8000	74.338
834.7000	74.2916
834.6000	74.2519
834.5000	74.2031
834.4000	74.1623
834.3000	74.122
834.2000	74.0904
834.1000	74.0668
834.0000	74.0574
833.9000	74.0386
833.8000	74.0219
833.7000	74.0055
833.6000	73.9963
833.5000	73.985
833.4000	73.9788
833.3000	73.9784
833.2000	73.9795
833.1000	73.9809
833.0000	73.9865
832.9000	74.0061
832.8000	74.0164
832.7000	74.0428
832.6000	74.0738
832.5000	74.0999
832.4000	74.1262
832.3000	74.1643
832.2000	74.2083
832.1000	74.2554
832.0000	74.3026
831.9000	74.3502
831.8000	74.4079
831.7000	74.4594
831.6000	74.518
831.5000	74.5818
831.4000	74.6588
831.3000	74.726
831.2000	74.8044
831.1000	74.8701
831.0000	74.9524
830.9000	75.0441
830.8000	75.1237
830.7000	75.2119
830.6000	75.301
830.5000	75.3936
830.4000	75.4883
830.3000	75.5897
830.2000	75.6908
830.1000	75.7963
830.0000	75.9048
829.9000	76.0296
829.8000	76.1429
829.7000	76.2598
829.6000	76.3827
829.5000	76.5163
829.4000	76.6374
829.3000	76.7619
829.2000	76.8965
829.1000	77.0375
829.0000	77.177
828.9000	77.3142
828.8000	77.4555
828.7000	77.5947
828.6000	77.7396
828.5000	77.8913
828.4000	78.0398
828.3000	78.1798
828.2000	78.3299
828.1000	78.4795
828.0000	78.6317
827.9000	78.7788
827.8000	78.9254
827.7000	79.0719
827.6000	79.2341
827.5000	79.3733
827.4000	79.5199
827.3000	79.6793
827.2000	79.8363
827.1000	79.9986
827.0000	80.1538
826.9000	80.3037
826.8000	80.4584
826.7000	80.6137
826.6000	80.761
826.5000	80.9163
826.4000	81.0752
826.3000	81.2312
826.2000	81.3788
826.1000	81.5212
826.0000	81.6563
825.9000	81.8038
825.8000	81.9506
825.7000	82.0774
825.6000	82.2114
825.5000	82.3411
825.4000	82.473
825.3000	82.6063
825.2000	82.7372
825.1000	82.8582
825.0000	82.9833
824.9000	83.1008
824.8000	83.2093
824.7000	83.3157
824.6000	83.4309
824.5000	83.5433
824.4000	83.6448
824.3000	83.7498
824.2000	83.8415
824.1000	83.9399
824.0000	84.0252
823.9000	84.1173
823.8000	84.1966
823.7000	84.272
823.6000	84.3424
823.5000	84.4055
823.4000	84.4669
823.3000	84.5291
823.2000	84.5823
823.1000	84.6316
823.0000	84.6773
822.9000	84.7261
822.8000	84.7728
822.7000	84.8018
822.6000	84.8378
822.5000	84.8651
822.4000	84.8987
822.3000	84.9132
822.2000	84.9211
822.1000	84.9315
822.0000	84.9394
821.9000	84.9471
821.8000	84.9421
821.7000	84.9407
821.6000	84.9315
821.5000	84.9192
821.4000	84.9003
821.3000	84.877
821.2000	84.8422
821.1000	84.8169
821.0000	84.7743
820.9000	84.729
820.8000	84.675
820.7000	84.6299
820.6000	84.5787
820.5000	84.5143
820.4000	84.4478
820.3000	84.3748
820.2000	84.3052
820.1000	84.2241
820.0000	84.1487
819.9000	84.0649
819.8000	83.9726
819.7000	83.8796
819.6000	83.7822
819.5000	83.6779
819.4000	83.578
819.3000	83.4676
819.2000	83.3663
819.1000	83.2394
819.0000	83.1214
818.9000	83.0107
818.8000	82.8909
818.7000	82.7696
818.6000	82.6405
818.5000	82.5146
818.4000	82.3823
818.3000	82.2505
818.2000	82.1195
818.1000	81.9837
818.0000	81.8484
817.9000	81.7061
817.8000	81.5709
817.7000	81.4374
817.6000	81.2975
817.5000	81.1701
817.4000	81.0379
817.3000	80.8897
817.2000	80.7513
817.1000	80.6133
817.0000	80.4781
816.9000	80.3362
816.8000	80.1893
816.7000	80.0509
816.6000	79.9122
816.5000	79.7751
816.4000	79.6385
816.3000	79.5012
816.2000	79.3646
816.1000	79.2328
816.0000	79.0932
815.9000	78.9535
815.8000	78.8181
815.7000	78.6956
815.6000	78.5683
815.5000	78.4407
815.4000	78.3122
815.3000	78.1777
815.2000	78.0625
815.1000	77.9412
815.0000	77.8192
814.9000	77.6985
814.8000	77.591
814.7000	77.4826
814.6000	77.3606
814.5000	77.2496
814.4000	77.1431
814.3000	77.0424
814.2000	76.9428
814.1000	76.84
814.0000	76.7402
813.9000	76.6453
813.8000	76.5534
813.7000	76.4748
813.6000	76.3849
813.5000	76.312
813.4000	76.2439
813.3000	76.169
813.2000	76.0927
813.1000	76.0304
813.0000	75.9764
812.9000	75.9147
812.8000	75.8618
812.7000	75.8074
812.6000	75.755
812.5000	75.709
812.4000	75.6679
812.3000	75.6275
812.2000	75.6062
812.1000	75.5798
812.0000	75.5628
811.9000	75.5419
811.8000	75.5228
811.7000	75.5155
811.6000	75.5052
811.5000	75.5018
811.4000	75.505
811.3000	75.5174
811.2000	75.5273
811.1000	75.5436
811.0000	75.5682
810.9000	75.588
810.8000	75.6137
810.7000	75.6482
810.6000	75.6789
810.5000	75.7088
810.4000	75.7453
810.3000	75.7792
810.2000	75.8273
810.1000	75.8709
810.0000	75.9309
809.9000	75.9798
809.8000	76.0435
809.7000	76.1067
809.6000	76.1764
809.5000	76.2542
809.4000	76.3367
809.3000	76.4238
809.2000	76.5077
809.1000	76.6001
809.0000	76.6825
808.9000	76.7808
808.8000	76.8818
808.7000	76.9854
808.6000	77.0868
808.5000	77.2003
808.4000	77.311
808.3000	77.4314
808.2000	77.5421
808.1000	77.6561
808.0000	77.7697
807.9000	77.8824
807.8000	77.996
807.7000	78.1188
807.6000	78.2451
807.5000	78.3668
807.4000	78.5011
807.3000	78.6376
807.2000	78.7641
807.1000	78.8976
807.0000	79.0358
806.9000	79.1717
806.8000	79.3069
806.7000	79.4464
806.6000	79.5907
806.5000	79.7293
806.4000	79.8787
806.3000	80.0296
806.2000	80.1752
806.1000	80.3207
806.0000	80.4649
805.9000	80.6134
805.8000	80.7612
805.7000	80.9015
805.6000	81.0472
805.5000	81.201
805.4000	81.3465
805.3000	81.4827
805.2000	81.6234
805.1000	81.7593
805.0000	81.8965
804.9000	82.0326
804.8000	82.1654
804.7000	82.295
804.6000	82.4168
804.5000	82.5451
804.4000	82.6733
804.3000	82.7952
804.2000	82.9097
804.1000	83.0227
804.0000	83.1378
803.9000	83.2461
803.8000	83.3475
803.7000	83.461
803.6000	83.5616
803.5000	83.6633
803.4000	83.7612
803.3000	83.8572
803.2000	83.9443
803.1000	84.028
803.0000	84.1062
802.9000	84.1805
802.8000	84.2508
802.7000	84.319
802.6000	84.3891
802.5000	84.4458
802.4000	84.5122
802.3000	84.5568
802.2000	84.6049
802.1000	84.6533
802.0000	84.6954
801.9000	84.7314
801.8000	84.7553
801.7000	84.7777
801.6000	84.7949
801.5000	84.8068
801.4000	84.824
801.3000	84.83
801.2000	84.8321
801.1000	84.8276
801.0000	84.8122
800.9000	84.8023
800.8000	84.7692
800.7000	84.7499
800.6000	84.7181
800.5000	84.6766
800.4000	84.6292
800.3000	84.5733
800.2000	84.5159
800.1000	84.453
800.0000	84.3819
799.9000	84.3177
799.8000	84.2434
799.7000	84.1624
799.6000	84.0805
799.5000	83.9896
799.4000	83.8945
799.3000	83.8041
799.2000	83.7043
799.1000	83.5968
799.0000	83.4894
798.9000	83.3702
798.8000	83.2584
798.7000	83.1411
798.6000	83.0251
798.5000	82.9018
798.4000	82.7807
798.3000	82.6422
798.2000	82.5081
798.1000	82.3698
798.0000	82.2235
797.9000	82.0898
797.8000	81.9449
797.7000	81.787
797.6000	81.6352
797.5000	81.4787
797.4000	81.324
797.3000	81.1768
797.2000	81.0253
797.1000	80.873
797.0000	80.7077
796.9000	80.5511
796.8000	80.3884
796.7000	80.2343
796.6000	80.0702
796.5000	79.9114
796.4000	79.7511
796.3000	79.5818
796.2000	79.4194
796.1000	79.2586
796.0000	79.1058
795.9000	78.945
795.8000	78.7846
795.7000	78.622
795.6000	78.4566
795.5000	78.2935
795.4000	78.1414
795.3000	77.9801
795.2000	77.8256
795.1000	77.6672
795.0000	77.5246
794.9000	77.37
794.8000	77.2243
794.7000	77.0843
794.6000	76.942
794.5000	76.8116
794.4000	76.6671
794.3000	76.5303
794.2000	76.4008
794.1000	76.273
794.0000	76.1561
793.9000	76.0371
793.8000	75.917
793.7000	75.8055
793.6000	75.6991
793.5000	75.5928
793.4000	75.4814
793.3000	75.3857
793.2000	75.2925
793.1000	75.2017
793.0000	75.1133
792.9000	75.0224
792.8000	74.942
792.7000	74.866
792.6000	74.7924
792.5000	74.7211
792.4000	74.6519
792.3000	74.5882
792.2000	74.5305
792.1000	74.4804
792.0000	74.4305
791.9000	74.3853
791.8000	74.3507
791.7000	74.3159
791.6000	74.2804
791.5000	74.2451
791.4000	74.2255
791.3000	74.2083
791.2000	74.1943
791.1000	74.1889
791.0000	74.1887
790.9000	74.1863
790.8000	74.1894
790.7000	74.1972
790.6000	74.206
790.5000	74.2266
790.4000	74.2485
790.3000	74.2756
790.2000	74.3038
790.1000	74.3335
790.0000	74.3765
789.9000	74.4217
789.8000	74.4696
789.7000	74.5195
789.6000	74.5817
789.5000	74.6447
789.4000	74.7035
789.3000	74.773
789.2000	74.8465
789.1000	74.935
789.0000	75.0253
788.9000	75.1069
788.8000	75.1909
788.7000	75.2832
788.6000	75.3833
788.5000	75.4921
788.4000	75.5949
788.3000	75.7081
788.2000	75.8165
788.1000	75.9332
788.0000	76.0535
787.9000	76.1707
787.8000	76.2974
787.7000	76.4244
787.6000	76.5527
787.5000	76.6737
787.4000	76.8075
787.3000	76.9446
787.2000	77.0889
787.1000	77.2284
787.0000	77.3672
786.9000	77.5027
786.8000	77.6416
786.7000	77.7817
786.6000	77.9314
786.5000	78.0824
786.4000	78.218
786.3000	78.3608
786.2000	78.5105
786.1000	78.6566
786.0000	78.8011
785.9000	78.9556
785.8000	79.1026
785.7000	79.2514
785.6000	79.3988
785.5000	79.5503
785.4000	79.6897
785.3000	79.8371
785.2000	79.9857
785.1000	80.1307
785.0000	80.2669
784.9000	80.3997
784.8000	80.5411
784.7000	80.6849
784.6000	80.8125
784.5000	80.9462
784.4000	81.0811
784.3000	81.2032
784.2000	81.3253
784.1000	81.441
784.0000	81.5574
783.9000	81.6719
783.8000	81.7823
783.7000	81.8898
783.6000	81.9933
783.5000	82.0939
783.4000	82.2003
783.3000	82.296
783.2000	82.384
783.1000	82.4639
783.0000	82.5405
782.9000	82.6157
782.8000	82.6874
782.7000	82.7467
782.6000	82.8046
782.5000	82.8583
782.4000	82.9114
782.3000	82.9564
782.2000	83.0019
782.1000	83.0363
782.0000	83.0724
781.9000	83.0994
781.8000	83.1142
781.7000	83.1247
781.6000	83.137
781.5000	83.1431
781.4000	83.1502
781.3000	83.147
781.2000	83.1383
781.1000	83.1238
781.0000	83.1002
780.9000	83.0739
780.8000	83.0411
780.7000	82.9973
780.6000	82.9482
780.5000	82.9025
780.4000	82.8415
780.3000	82.7749
780.2000	82.7045
780.1000	82.6381
780.0000	82.5544
779.9000	82.4722
779.8000	82.3838
779.7000	82.2865
779.6000	82.1798
779.5000	82.0814
779.4000	81.9782
779.3000	81.8652
779.2000	81.7436
779.1000	81.6293
779.0000	81.511
778.9000	81.3767
778.8000	81.2429
778.7000	81.1061
778.6000	80.9634
778.5000	80.8126
778.4000	80.6665
778.3000	80.516
778.2000	80.3592
778.1000	80.2056
778.0000	80.0398
777.9000	79.8746
777.8000	79.7096
777.7000	79.547
777.6000	79.3735
777.5000	79.1955
777.4000	79.0149
777.3000	78.8385
777.2000	78.6616
777.1000	78.4842
777.0000	78.3117
776.9000	78.137
776.8000	77.9668
776.7000	77.7821
776.6000	77.6075
776.5000	77.426
776.4000	77.2547
776.3000	77.0765
776.2000	76.8988
776.1000	76.7204
776.0000	76.5455
775.9000	76.367
775.8000	76.199
775.7000	76.0302
775.6000	75.8576
775.5000	75.6896
775.4000	75.5214
775.3000	75.3545
775.2000	75.1832
775.1000	75.0267
775.0000	74.8621
774.9000	74.7065
774.8000	74.5508
774.7000	74.3984
774.6000	74.2478
774.5000	74.1047
774.4000	73.9649
774.3000	73.8258
774.2000	73.6895
774.1000	73.5556
774.0000	73.4365
773.9000	73.3128
773.8000	73.1874
773.7000	73.072
773.6000	72.959
773.5000	72.8506
773.4000	72.7465
773.3000	72.6439
773.2000	72.5479
773.1000	72.4594
773.0000	72.3725
772.9000	72.2867
772.8000	72.2098
772.7000	72.14
772.6000	72.0704
772.5000	72.0068
772.4000	71.9404
772.3000	71.8827
772.2000	71.8309
772.1000	71.7864
772.0000	71.7476
771.9000	71.7101
771.8000	71.6838
771.7000	71.6595
771.6000	71.6426
771.5000	71.6303
771.4000	71.6188
771.3000	71.6164
771.2000	71.6119
771.1000	71.6184
771.0000	71.6299
770.9000	71.6445
770.8000	71.665
770.7000	71.692
770.6000	71.7251
770.5000	71.7604
770.4000	71.8043
770.3000	71.8509
770.2000	71.8972
770.1000	71.9521
770.0000	72.0146
769.9000	72.0768
769.8000	72.1471
769.7000	72.2172
769.6000	72.303
769.5000	72.3907
769.4000	72.4747
769.3000	72.5709
769.2000	72.6639
769.1000	72.7672
769.0000	72.8759
768.9000	72.986
768.8000	73.0943
768.7000	73.2139
768.6000	73.3362
768.5000	73.4672
768.4000	73.5921
768.3000	73.726
768.2000	73.8614
768.1000	74.0011
768.0000	74.1393
767.9000	74.2775
767.8000	74.431
767.7000	74.5804
767.6000	74.7414
767.5000	74.891
767.4000	75.0469
767.3000	75.2037
767.2000	75.362
767.1000	75.5152
767.0000	75.6782
766.9000	75.8373
766.8000	75.9956
766.7000	76.1497
766.6000	76.3145
766.5000	76.4819
766.4000	76.6465
766.3000	76.8114
766.2000	76.9759
766.1000	77.139
766.0000	77.297
765.9000	77.46
765.8000	77.6243
765.7000	77.783
765.6000	77.9467
765.5000	78.1115
765.4000	78.2728
765.3000	78.4298
765.2000	78.5882
765.1000	78.7447
765.0000	78.8967
764.9000	79.0424
764.8000	79.1894
764.7000	79.3291
764.6000	79.4632
764.5000	79.5972
764.4000	79.7292
764.3000	79.8641
764.2000	79.9841
764.1000	80.1085
764.0000	80.2222
763.9000	80.3308
763.8000	80.4368
763.7000	80.5378
763.6000	80.6322
763.5000	80.7244
763.4000	80.8134
763.3000	80.8957
763.2000	80.9695
763.1000	81.0453
763.0000	81.1132
762.9000	81.1751
762.8000	81.2338
762.7000	81.2762
762.6000	81.3233
762.5000	81.3537
762.4000	81.3872
762.3000	81.4126
762.2000	81.429
762.1000	81.4389
762.0000	81.4491
761.9000	81.454
761.8000	81.4457
761.7000	81.4293
761.6000	81.4118
761.5000	81.3891
761.4000	81.3557
761.3000	81.3211
761.2000	81.2736
761.1000	81.2334
761.0000	81.1754
760.9000	81.1193
760.8000	81.0518
760.7000	80.9853
760.6000	80.9095
760.5000	80.8281
760.4000	80.737
760.3000	80.6454
760.2000	80.5486
760.1000	80.4491
760.0000	80.3412
759.9000	80.2255
759.8000	80.1131
759.7000	79.9873
759.6000	79.8615
759.5000	79.723
759.4000	79.5867
759.3000	79.445
759.2000	79.3032
759.1000	79.1504
759.0000	78.9985
758.9000	78.8437
758.8000	78.6888
758.7000	78.52
758.6000	78.3532
758.5000	78.183
758.4000	78.0113
758.3000	77.8388
758.2000	77.6623
758.1000	77.4901
758.0000	77.3184
757.9000	77.1442
757.8000	76.9654
757.7000	76.7857
757.6000	76.6063
757.5000	76.4296
757.4000	76.2417
757.3000	76.0599
757.2000	75.878
757.1000	75.7054
757.0000	75.528
756.9000	75.3557
756.8000	75.1801
756.7000	75.0016
756.6000	74.8293
756.5000	74.6533
756.4000	74.4747
756.3000	74.3019
756.2000	74.1368
756.1000	73.9748
756.0000	73.8096
755.9000	73.6442
755.8000	73.4896
755.7000	73.3347
755.6000	73.1862
755.5000	73.0336
755.4000	72.8852
755.3000	72.7439
755.2000	72.6039
755.1000	72.4717
755.0000	72.3402
754.9000	72.2186
754.8000	72.0992
754.7000	71.982
754.6000	71.8662
754.5000	71.7575
754.4000	71.6526
754.3000	71.5533
754.2000	71.4609
754.1000	71.375
754.0000	71.2867
753.9000	71.2036
753.8000	71.1353
753.7000	71.0617
753.6000	70.9999
753.5000	70.9416
753.4000	70.8854
753.3000	70.8346
753.2000	70.7961
753.1000	70.7607
753.0000	70.7317
752.9000	70.7031
752.8000	70.6812
752.7000	70.67
752.6000	70.6622
752.5000	70.6552
752.4000	70.6604
752.3000	70.6729
752.2000	70.6826
752.1000	70.7049
752.0000	70.7336
751.9000	70.7676
751.8000	70.8107
751.7000	70.8503
751.6000	70.8977
751.5000	70.9546
751.4000	71.0117
751.3000	71.0802
751.2000	71.1542
751.1000	71.2304
751.0000	71.3118
750.9000	71.4023
750.8000	71.4894
750.7000	71.5885
750.6000	71.6966
750.5000	71.801
750.4000	71.9058
750.3000	72.0173
750.2000	72.1295
750.1000	72.2536
750.0000	72.3747
749.9000	72.5054
749.8000	72.6413
749.7000	72.7768
749.6000	72.9174
749.5000	73.0666
749.4000	73.2162
749.3000	73.3663
749.2000	73.527
749.1000	73.6805
749.0000	73.8384
748.9000	74.0052
748.8000	74.1755
748.7000	74.3479
748.6000	74.5247
748.5000	74.6958
748.4000	74.8794
748.3000	75.0563
748.2000	75.2369
748.1000	75.4216
748.0000	75.6046
747.9000	75.7841
747.8000	75.9665
747.7000	76.1501
747.6000	76.3344
747.5000	76.5204
747.4000	76.701
747.3000	76.8851
747.2000	77.0635
747.1000	77.2461
747.0000	77.4295
746.9000	77.6121
746.8000	77.7832
746.7000	77.9532
746.6000	78.1317
746.5000	78.3009
746.4000	78.4688
746.3000	78.6403
746.2000	78.804
746.1000	78.9626
746.0000	79.1125
745.9000	79.2649
745.8000	79.4096
745.7000	79.5504
745.6000	79.6969
745.5000	79.8298
745.4000	79.9538
745.3000	80.0784
745.2000	80.2004
745.1000	80.3157
745.0000	80.4231
744.9000	80.5256
744.8000	80.622
744.7000	80.7081
744.6000	80.793
744.5000	80.8736
744.4000	80.9528
744.3000	81.0233
744.2000	81.0852
744.1000	81.1413
744.0000	81.1852
743.9000	81.2249
743.8000	81.2613
743.7000	81.2886
743.6000	81.3094
743.5000	81.326
743.4000	81.3295
743.3000	81.3377
743.2000	81.3323
743.1000	81.3149
743.0000	81.2969
742.9000	81.2712
742.8000	81.2408
742.7000	81.1962
742.6000	81.159
742.5000	81.1071
742.4000	81.0517
742.3000	80.9893
742.2000	80.9227
742.1000	80.8519
742.0000	80.7721
741.9000	80.6908
741.8000	80.6007
741.7000	80.5008
741.6000	80.4014
741.5000	80.3013
741.4000	80.1882
741.3000	80.0717
741.2000	79.9491
741.1000	79.8283
741.0000	79.6961
740.9000	79.5602
740.8000	79.4201
740.7000	79.2827
740.6000	79.1343
740.5000	78.9836
740.4000	78.8354
740.3000	78.68
740.2000	78.5286
740.1000	78.3663
740.0000	78.1882
739.9000	78.03
739.8000	77.8688
739.7000	77.7038
739.6000	77.5361
739.5000	77.3713
739.4000	77.2063
739.3000	77.0406
739.2000	76.8759
739.1000	76.7032
739.0000	76.5395
738.9000	76.3755
738.8000	76.2098
738.7000	76.0451
738.6000	75.8853
738.5000	75.7198
738.4000	75.5613
738.3000	75.3986
738.2000	75.2442
738.1000	75.0861
738.0000	74.936
737.9000	74.7856
737.8000	74.6387
737.7000	74.5006
737.6000	74.3609
737.5000	74.2252
737.4000	74.0874
737.3000	73.955
737.2000	73.8255
737.1000	73.7043
737.0000	73.5824
736.9000	73.4631
736.8000	73.3501
736.7000	73.2445
736.6000	73.1402
736.5000	73.0449
736.4000	72.955
736.3000	72.8655
736.2000	72.7814
736.1000	72.7009
736.0000	72.6285
735.9000	72.5597
735.8000	72.5016
735.7000	72.4488
735.6000	72.4007
735.5000	72.3536
735.4000	72.3126
735.3000	72.2857
735.2000	72.2585
735.1000	72.2389
735.0000	72.2253
734.9000	72.2194
734.8000	72.214
734.7000	72.2193
734.6000	72.2287
734.5000	72.2458
734.4000	72.2686
734.3000	72.2981
734.2000	72.33
734.1000	72.3678
734.0000	72.4145
733.9000	72.4684
733.8000	72.5306
733.7000	72.5932
733.6000	72.666
733.5000	72.7393
733.4000	72.8183
733.3000	72.9016
733.2000	72.9912
733.1000	73.0886
733.0000	73.1904
732.9000	73.2945
732.8000	73.4015
732.7000	73.5153
732.6000	73.6357
732.5000	73.7593
732.4000	73.8865
732.3000	74.0193
732.2000	74.1527
732.1000	74.2938
732.0000	74.4364
731.9000	74.5822
731.8000	74.7357
731.7000	74.8906
731.6000	75.0508
731.5000	75.2132
731.4000	75.3779
731.3000	75.5393
731.2000	75.7038
731.1000	75.8788
731.0000	76.0567
730.9000	76.2287
730.8000	76.4058
730.7000	76.5805
730.6000	76.7647
730.5000	76.9466
730.4000	77.1266
730.3000	77.3094
730.2000	77.4888
730.1000	77.67
730.0000	77.8495
729.9000	78.0269
729.8000	78.2051
729.7000	78.3871
729.6000	78.5717
729.5000	78.7495
729.4000	78.9217
729.3000	79.0987
729.2000	79.2699
729.1000	79.4434
729.0000	79.6067
728.9000	79.7653
728.8000	79.9274
728.7000	80.0857
728.6000	80.2409
728.5000	80.3906
728.4000	80.5361
728.3000	80.6767
728.2000	80.8193
728.1000	80.9529
728.0000	81.0773
727.9000	81.1963
727.8000	81.315
727.7000	81.4306
727.6000	81.5383
727.5000	81.6376
727.4000	81.7363
727.3000	81.8325
727.2000	81.9153
727.1000	82.0003
727.0000	82.071
726.9000	82.1429
726.8000	82.2084
726.7000	82.2711
726.6000	82.3192
726.5000	82.3618
726.4000	82.4035
726.3000	82.4379
726.2000	82.4614
726.1000	82.473
726.0000	82.4826
725.9000	82.4871
725.8000	82.4826
725.7000	82.4692
725.6000	82.4568
725.5000	82.4279
725.4000	82.4001
725.3000	82.3562
725.2000	82.3076
725.1000	82.2542
725.0000	82.1948
724.9000	82.1365
724.8000	82.0645
724.7000	81.9891
724.6000	81.9068
724.5000	81.8206
724.4000	81.7325
724.3000	81.6392
724.2000	81.5387
724.1000	81.4362
724.0000	81.3236
723.9000	81.2096
723.8000	81.0886
723.7000	80.9685
723.6000	80.8464
723.5000	80.7154
723.4000	80.5805
723.3000	80.4395
723.2000	80.3029
723.1000	80.1593
723.0000	80.0139
722.9000	79.8722
722.8000	79.7197
722.7000	79.5653
722.6000	79.4099
722.5000	79.252
722.4000	79.098
722.3000	78.9429
722.2000	78.789
722.1000	78.6329
722.0000	78.4744
721.9000	78.3213
721.8000	78.1714
721.7000	78.0185
721.6000	77.8611
721.5000	77.7098
721.4000	77.5604
721.3000	77.4061
721.2000	77.2616
721.1000	77.1195
721.0000	76.9767
720.9000	76.8363
720.8000	76.6982
720.7000	76.5643
720.6000	76.433
720.5000	76.308
720.4000	76.1795
720.3000	76.0528
720.2000	75.9333
720.1000	75.8159
720.0000	75.7086
719.9000	75.5981
719.8000	75.4978
719.7000	75.4044
719.6000	75.3076
719.5000	75.2176
719.4000	75.1355
719.3000	75.0612
719.2000	74.9875
719.1000	74.9191
719.0000	74.8618
718.9000	74.8026
718.8000	74.7573
718.7000	74.7157
718.6000	74.6738
718.5000	74.6445
718.4000	74.6176
718.3000	74.5997
718.2000	74.5816
718.1000	74.5684
718.0000	74.5687
717.9000	74.5686
717.8000	74.5793
717.7000	74.59
717.6000	74.6079
717.5000	74.6344
717.4000	74.6631
717.3000	74.7007
717.2000	74.7429
717.1000	74.7883
717.0000	74.8466
716.9000	74.9085
716.8000	74.972
716.7000	75.042
716.6000	75.1213
716.5000	75.2047
716.4000	75.293
716.3000	75.3848
716.2000	75.4813
716.1000	75.5849
716.0000	75.6954
715.9000	75.8053
715.8000	75.9195
715.7000	76.0409
715.6000	76.1643
715.5000	76.2961
715.4000	76.4271
715.3000	76.5619
715.2000	76.7051
715.1000	76.8498
715.0000	76.9947
714.9000	77.1449
714.8000	77.295
714.7000	77.4534
714.6000	77.6089
714.5000	77.7675
714.4000	77.9314
714.3000	78.095
714.2000	78.263
714.1000	78.4282
714.0000	78.5987
713.9000	78.7673
713.8000	78.9346
713.7000	79.1019
713.6000	79.2636
713.5000	79.4336
713.4000	79.5986
713.3000	79.7639
713.2000	79.9294
713.1000	80.0936
713.0000	80.2523
712.9000	80.4172
712.8000	80.5747
712.7000	80.7273
712.6000	80.878
712.5000	81.026
712.4000	81.1664
712.3000	81.3036
712.2000	81.4408
712.1000	81.5703
712.0000	81.6999
711.9000	81.8178
711.8000	81.9427
711.7000	82.0589
711.6000	82.1683
711.5000	82.267
711.4000	82.3686
711.3000	82.451
711.2000	82.5326
711.1000	82.6143
711.0000	82.6805
710.9000	82.7425
710.8000	82.8032
710.7000	82.8582
710.6000	82.9014
710.5000	82.943
710.4000	82.9798
710.3000	83.0067
710.2000	83.023
710.1000	83.0326
710.0000	83.0343
709.9000	83.0373
709.8000	83.029
709.7000	83.018
709.6000	82.9976
709.5000	82.9707
709.4000	82.9385
709.3000	82.9002
709.2000	82.8506
709.1000	82.7948
709.0000	82.7346
708.9000	82.6628
708.8000	82.5879
708.7000	82.506
708.6000	82.4197
708.5000	82.3295
708.4000	82.2309
708.3000	82.1233
708.2000	82.0159
708.1000	81.9047
708.0000	81.7853
707.9000	81.6574
707.8000	81.5322
707.7000	81.4051
707.6000	81.2721
707.5000	81.1368
707.4000	80.9914
707.3000	80.8527
707.2000	80.7054
707.1000	80.5612
707.0000	80.4071
706.9000	80.2526
706.8000	80.0989
706.7000	79.943
706.6000	79.7789
706.5000	79.6167
706.4000	79.4571
706.3000	79.2991
706.2000	79.1381
706.1000	78.9734
706.0000	78.8083
705.9000	78.6416
705.8000	78.4844
705.7000	78.322
705.6000	78.1599
705.5000	77.9986
705.4000	77.8421
705.3000	77.688
705.2000	77.5349
705.1000	77.3839
705.0000	77.2362
704.9000	77.0909
704.8000	76.9462
704.7000	76.8016
704.6000	76.6647
704.5000	76.5344
704.4000	76.4084
704.3000	76.2848
704.2000	76.163
704.1000	76.0483
704.0000	75.9379
703.9000	75.8315
703.8000	75.7293
703.7000	75.6323
703.6000	75.5416
703.5000	75.455
703.4000	75.3765
703.3000	75.3046
703.2000	75.236
703.1000	75.1797
703.0000	75.1209
702.9000	75.0688
702.8000	75.0289
702.7000	74.9958
702.6000	74.9701
702.5000	74.9456
702.4000	74.9297
702.3000	74.92
702.2000	74.9193
702.1000	74.925
702.0000	74.9371
701.9000	74.9591
701.8000	74.9855
701.7000	75.0126
701.6000	75.0502
701.5000	75.0946
701.4000	75.148
701.3000	75.2033
701.2000	75.2654
701.1000	75.3329
701.0000	75.4056
700.9000	75.4855
700.8000	75.5724
700.7000	75.665
700.6000	75.7585
700.5000	75.8563
700.4000	75.9595
700.3000	76.0652
700.2000	76.177
700.1000	76.2949
700.0000	76.4178
699.9000	76.5418
699.8000	76.6652
699.7000	76.7947
699.6000	76.9259
699.5000	77.0602
699.4000	77.2015
699.3000	77.3435
699.2000	77.4868
699.1000	77.6345
699.0000	77.7846
698.9000	77.9346
698.8000	78.0843
698.7000	78.2355
698.6000	78.3888
698.5000	78.5419
698.4000	78.6947
698.3000	78.8444
698.2000	78.9993
698.1000	79.1528
698.0000	79.3022
697.9000	79.4528
697.8000	79.5955
697.7000	79.7424
697.6000	79.8835
697.5000	80.0192
697.4000	80.1553
697.3000	80.2872
697.2000	80.4148
697.1000	80.541
697.0000	80.6625
696.9000	80.7767
696.8000	80.8861
696.7000	80.9945
696.6000	81.0949
696.5000	81.1914
696.4000	81.2824
696.3000	81.3711
696.2000	81.4566
696.1000	81.5294
696.0000	81.5974
695.9000	81.66
695.8000	81.7193
695.7000	81.774
695.6000	81.8254
695.5000	81.8659
695.4000	81.8965
695.3000	81.9282
695.2000	81.9513
695.1000	81.9678
695.0000	81.976
694.9000	81.9758
694.8000	81.9711
694.7000	81.9557
694.6000	81.9321
694.5000	81.9054
694.4000	81.8727
694.3000	81.8336
694.2000	81.7869
694.1000	81.7301
694.0000	81.6683
693.9000	81.6004
693.8000	81.5283
693.7000	81.4497
693.6000	81.3636
693.5000	81.2721
693.4000	81.175
693.3000	81.0745
693.2000	80.967
693.1000	80.8541
693.0000	80.7364
692.9000	80.6094
692.8000	80.4801
692.7000	80.3484
692.6000	80.2076
692.5000	80.0682
692.4000	79.9217
692.3000	79.7733
692.2000	79.6177
692.1000	79.4589
692.0000	79.2967
691.9000	79.1292
691.8000	78.9609
691.7000	78.7934
691.6000	78.6184
691.5000	78.4411
691.4000	78.262
691.3000	78.0862
691.2000	77.9064
691.1000	77.7261
691.0000	77.5444
690.9000	77.3596
690.8000	77.1776
690.7000	76.9936
690.6000	76.8141
690.5000	76.6297
690.4000	76.4493
690.3000	76.274
690.2000	76.1003
690.1000	75.9206
690.0000	75.7529
689.9000	75.5849
689.8000	75.4188
689.7000	75.2581
689.6000	75.0955
689.5000	74.9372
689.4000	74.7841
689.3000	74.6354
689.2000	74.4849
689.1000	74.3425
689.0000	74.2035
688.9000	74.0705
688.8000	73.9425
688.7000	73.8155
688.6000	73.6939
688.5000	73.5817
688.4000	73.4693
688.3000	73.3637
688.2000	73.2651
688.1000	73.1729
688.0000	73.09
687.9000	73.0084
687.8000	72.936
687.7000	72.8672
687.6000	72.8095
687.5000	72.7555
687.4000	72.7066
687.3000	72.6708
687.2000	72.6371
687.1000	72.6152
687.0000	72.5947
686.9000	72.5824
686.8000	72.5817
686.7000	72.5855
686.6000	72.5953
686.5000	72.6085
686.4000	72.6286
686.3000	72.6629
686.2000	72.6967
686.1000	72.7397
686.0000	72.79
685.9000	72.8449
685.8000	72.9104
685.7000	72.977
685.6000	73.0565
685.5000	73.1384
685.4000	73.2294
685.3000	73.3248
685.2000	73.4201
685.1000	73.5241
685.0000	73.6313
684.9000	73.7473
684.8000	73.8704
684.7000	73.9904
684.6000	74.1201
684.5000	74.255
684.4000	74.3898
684.3000	74.5308
684.2000	74.676
684.1000	74.8221
684.0000	74.9696
683.9000	75.1218
683.8000	75.2786
683.7000	75.4331
683.6000	75.5976
683.5000	75.7562
683.4000	75.9195
683.3000	76.0827
683.2000	76.2454
683.1000	76.4127
683.0000	76.5746
682.9000	76.74
682.8000	76.9057
682.7000	77.0695
682.6000	77.2275
682.5000	77.3889
682.4000	77.5483
682.3000	77.7026
682.2000	77.8528
682.1000	78.0049
682.0000	78.1465
681.9000	78.2915
681.8000	78.4322
681.7000	78.5638
681.6000	78.6959
681.5000	78.8161
681.4000	78.9338
681.3000	79.045
681.2000	79.1475
681.1000	79.2505
681.0000	79.3452
680.9000	79.4307
680.8000	79.5079
680.7000	79.5774
680.6000	79.6423
680.5000	79.6958
680.4000	79.744
680.3000	79.7838
680.2000	79.8144
680.1000	79.838
680.0000	79.847
679.9000	79.8522
679.8000	79.848
679.7000	79.8387
679.6000	79.816
679.5000	79.7838
679.4000	79.7444
679.3000	79.6966
679.2000	79.6398
679.1000	79.5733
679.0000	79.5036
678.9000	79.4245
678.8000	79.3375
678.7000	79.2424
678.6000	79.1396
678.5000	79.0303
678.4000	78.9142
678.3000	78.7902
678.2000	78.6661
678.1000	78.5293
678.0000	78.3933
677.9000	78.2426
677.8000	78.0929
677.7000	77.9359
677.6000	77.7756
677.5000	77.6125
677.4000	77.4345
677.3000	77.2631
677.2000	77.0859
677.1000	76.9046
677.0000	76.7197
676.9000	76.535
676.8000	76.3455
676.7000	76.1579
676.6000	75.9637
676.5000	75.7681
676.4000	75.569
676.3000	75.3772
676.2000	75.1818
676.1000	74.9888
676.0000	74.7934
675.9000	74.6022
675.8000	74.4133
675.7000	74.221
675.6000	74.0336
675.5000	73.8458
675.4000	73.6638
675.3000	73.4836
675.2000	73.3091
675.1000	73.1334
675.0000	72.9636
674.9000	72.7985
674.8000	72.6388
674.7000	72.4821
674.6000	72.3293
674.5000	72.1759
674.4000	72.0326
674.3000	71.8875
674.2000	71.7538
674.1000	71.625
674.0000	71.499
673.9000	71.3815
673.8000	71.2712
673.7000	71.1663
673.6000	71.068
673.5000	70.9726
673.4000	70.8876
673.3000	70.8112
673.2000	70.7426
673.1000	70.6777
673.0000	70.6183
672.9000	70.5742
672.8000	70.5343
672.7000	70.5024
672.6000	70.4756
672.5000	70.4594
672.4000	70.45
672.3000	70.4534
672.2000	70.4612
672.1000	70.4744
672.0000	70.4944
671.9000	70.5274
671.8000	70.5668
671.7000	70.61
671.6000	70.664
671.5000	70.7243
671.4000	70.7966
671.3000	70.8707
671.2000	70.9553
671.1000	71.0479
671.0000	71.1478
670.9000	71.2486
670.8000	71.3616
670.7000	71.4745
670.6000	71.594
670.5000	71.7218
670.4000	71.8583
670.3000	71.9958
670.2000	72.139
670.1000	72.2874
670.0000	72.4396
669.9000	72.5911
669.8000	72.7471
669.7000	72.9085
669.6000	73.0724
669.5000	73.2393
669.4000	73.4074
669.3000	73.581
669.2000	73.7532
669.1000	73.9278
669.0000	74.1035
668.9000	74.2815
668.8000	74.4558
668.7000	74.6374
668.6000	74.8127
668.5000	74.9873
668.4000	75.1584
668.3000	75.3379
668.2000	75.5115
668.1000	75.6825
668.0000	75.8485
667.9000	76.0166
667.8000	76.1824
667.7000	76.3429
667.6000	76.4998
667.5000	76.6512
667.4000	76.7981
667.3000	76.9409
667.2000	77.0813
667.1000	77.2106
667.0000	77.3378
666.9000	77.4624
666.8000	77.5782
666.7000	77.6857
666.6000	77.7891
666.5000	77.8894
666.4000	77.9809
666.3000	78.0622
666.2000	78.1365
666.1000	78.2048
666.0000	78.2626
665.9000	78.3167
665.8000	78.3656
665.7000	78.3996
665.6000	78.4238
665.5000	78.4426
665.4000	78.4535
665.3000	78.4519
665.2000	78.4448
665.1000	78.4329
665.0000	78.4064
664.9000	78.3721
664.8000	78.3331
664.7000	78.2826
664.6000	78.2277
664.5000	78.1603
664.4000	78.0859
664.3000	78.0046
664.2000	77.9138
664.1000	77.8195
664.0000	77.7223
663.9000	77.6151
663.8000	77.4995
663.7000	77.3786
663.6000	77.2538
663.5000	77.1174
663.4000	76.9816
663.3000	76.8402
663.2000	76.6893
663.1000	76.5376
663.0000	76.376
662.9000	76.2164
662.8000	76.0531
662.7000	75.8808
662.6000	75.7111
662.5000	75.5363
662.4000	75.3568
662.3000	75.1744
662.2000	74.9911
662.1000	74.8133
662.0000	74.6298
661.9000	74.4469
661.8000	74.2606
661.7000	74.0743
661.6000	73.8925
661.5000	73.7147
661.4000	73.5367
661.3000	73.3568
661.2000	73.1842
661.1000	73.0144
661.0000	72.8424
660.9000	72.6767
660.8000	72.5161
660.7000	72.3623
660.6000	72.2101
660.5000	72.0583
660.4000	71.9179
660.3000	71.7808
660.2000	71.6497
660.1000	71.5235
660.0000	71.4005
659.9000	71.2797
659.8000	71.1688
659.7000	71.0644
659.6000	70.9649
659.5000	70.8753
659.4000	70.7947
659.3000	70.7193
659.2000	70.6486
659.1000	70.5898
659.0000	70.5362
658.9000	70.4924
658.8000	70.4527
658.7000	70.4213
658.6000	70.3999
658.5000	70.388
658.4000	70.3829
658.3000	70.3873
658.2000	70.3978
658.1000	70.4194
658.0000	70.4488
657.9000	70.4876
657.8000	70.5284
657.7000	70.5822
657.6000	70.6416
657.5000	70.708
657.4000	70.7845
657.3000	70.8643
657.2000	70.9546
657.1000	71.0536
657.0000	71.1561
656.9000	71.2669
656.8000	71.385
656.7000	71.5094
656.6000	71.6416
656.5000	71.78
656.4000	71.9216
656.3000	72.0677
656.2000	72.2206
656.1000	72.3754
656.0000	72.5393
655.9000	72.7079
655.8000	72.8793
655.7000	73.0557
655.6000	73.2309
655.5000	73.4121
655.4000	73.5967
655.3000	73.7835
655.2000	73.9695
655.1000	74.1587
655.0000	74.3512
654.9000	74.5421
654.8000	74.7322
654.7000	74.9226
654.6000	75.1137
654.5000	75.3015
654.4000	75.4895
654.3000	75.6703
654.2000	75.8527
654.1000	76.0324
654.0000	76.2109
653.9000	76.3848
653.8000	76.554
653.7000	76.7173
653.6000	76.8805
653.5000	77.0364
653.4000	77.1826
653.3000	77.3263
653.2000	77.4633
653.1000	77.5977
653.0000	77.7263
652.9000	77.8476
652.8000	77.9565
652.7000	78.0666
652.6000	78.1677
652.5000	78.2585
652.4000	78.3449
652.3000	78.4182
652.2000	78.4872
652.1000	78.5437
652.0000	78.5926
651.9000	78.6351
651.8000	78.6686
651.7000	78.6944
651.6000	78.7125
651.5000	78.7145
651.4000	78.7142
651.3000	78.7062
651.2000	78.6925
651.1000	78.668
651.0000	78.6359
650.9000	78.591
650.8000	78.5378
650.7000	78.4819
650.6000	78.417
650.5000	78.3465
650.4000	78.2708
650.3000	78.1842
650.2000	78.0907
650.1000	77.9897
650.0000	77.8871
649.9000	77.7804
649.8000	77.6586
649.7000	77.5355
649.6000	77.4104
649.5000	77.2722
649.4000	77.1313
649.3000	76.9932
649.2000	76.8478
649.1000	76.7032
649.0000	76.5498
648.9000	76.3948
648.8000	76.2369
648.7000	76.0807
648.6000	75.9247
648.5000	75.7665
648.4000	75.6059
648.3000	75.4445
648.2000	75.2883
648.1000	75.1313
648.0000	74.9716
647.9000	74.8132
647.8000	74.6618
647.7000	74.508
647.6000	74.3611
647.5000	74.2108
647.4000	74.0718
647.3000	73.9308
647.2000	73.7971
647.1000	73.6615
647.0000	73.5355
646.9000	73.4128
646.8000	73.2941
646.7000	73.1824
646.6000	73.0759
646.5000	72.9736
646.4000	72.8782
646.3000	72.7961
646.2000	72.7144
646.1000	72.6426
646.0000	72.5732
645.9000	72.5151
645.8000	72.4599
645.7000	72.4179
645.6000	72.3816
645.5000	72.353
645.4000	72.3329
645.3000	72.3194
645.2000	72.3139
645.1000	72.3167
645.0000	72.3237
644.9000	72.3451
644.8000	72.3698
644.7000	72.4016
644.6000	72.4394
644.5000	72.4888
644.4000	72.5474
644.3000	72.6125
644.2000	72.6835
644.1000	72.7612
644.0000	72.8424
643.9000	72.9375
643.8000	73.0331
643.7000	73.1376
643.6000	73.2488
643.5000	73.3722
643.4000	73.4996
643.3000	73.6273
643.2000	73.7653
643.1000	73.9064
643.0000	74.0557
642.9000	74.2086
642.8000	74.3643
642.7000	74.5225
642.6000	74.6861
642.5000	74.8558
642.4000	75.0289
642.3000	75.2018
642.2000	75.3759
642.1000	75.5524
642.0000	75.735
641.9000	75.9084
641.8000	76.0854
641.7000	76.2605
641.6000	76.4375
641.5000	76.6161
641.4000	76.7886
641.3000	76.9534
641.2000	77.1212
641.1000	77.2852
641.0000	77.4471
640.9000	77.6031
640.8000	77.7547
640.7000	77.9029
640.6000	78.0496
640.5000	78.1891
640.4000	78.3191
640.3000	78.4452
640.2000	78.5716
640.1000	78.6898
640.0000	78.8023
639.9000	78.9046
639.8000	79.0043
639.7000	79.0999
639.6000	79.1842
639.5000	79.2622
639.4000	79.3324
639.3000	79.3931
639.2000	79.446
639.1000	79.4905
639.0000	79.5261
638.9000	79.5529
638.8000	79.574
638.7000	79.5873
638.6000	79.5896
638.5000	79.5852
638.4000	79.5692
638.3000	79.5496
638.2000	79.5212
638.1000	79.4846
638.0000	79.4397
637.9000	79.3869
637.8000	79.3265
637.7000	79.2618
637.6000	79.1904
637.5000	79.1102
637.4000	79.0224
637.3000	78.9327
637.2000	78.8334
637.1000	78.7293
637.0000	78.6198
636.9000	78.5063
636.8000	78.385
636.7000	78.2592
636.6000	78.1285
636.5000	77.9962
636.4000	77.8593
636.3000	77.7221
636.2000	77.5821
636.1000	77.4357
636.0000	77.2857
635.9000	77.1385
635.8000	76.9903
635.7000	76.8439
635.6000	76.6969
635.5000	76.5494
635.4000	76.396
635.3000	76.2498
635.2000	76.1085
635.1000	75.9652
635.0000	75.8219
634.9000	75.6839
634.8000	75.5533
634.7000	75.4221
634.6000	75.2918
634.5000	75.1673
634.4000	75.049
634.3000	74.9358
634.2000	74.8243
634.1000	74.7117
634.0000	74.6087
633.9000	74.5142
633.8000	74.4292
633.7000	74.3421
633.6000	74.2613
633.5000	74.1926
633.4000	74.132
633.3000	74.0751
633.2000	74.0231
633.1000	73.9764
633.0000	73.9421
632.9000	73.9137
632.8000	73.8915
632.7000	73.8757
632.6000	73.8742
632.5000	73.8838
632.4000	73.8906
632.3000	73.9097
632.2000	73.9372
632.1000	73.9744
632.0000	74.0172
631.9000	74.0632
631.8000	74.1157
631.7000	74.1756
631.6000	74.2411
631.5000	74.3188
631.4000	74.4009
631.3000	74.4905
631.2000	74.5863
631.1000	74.686
631.0000	74.7898
630.9000	74.8996
630.8000	75.0198
630.7000	75.1343
630.6000	75.2569
630.5000	75.3862
630.4000	75.5184
630.3000	75.649
630.2000	75.7892
630.1000	75.9294
630.0000	76.0731
629.9000	76.2167
629.8000	76.3598
629.7000	76.5059
629.6000	76.6533
629.5000	76.8019
629.4000	76.9473
629.3000	77.0893
629.2000	77.2344
629.1000	77.3778
629.0000	77.5176
628.9000	77.6554
628.8000	77.791
628.7000	77.9297
628.6000	78.0573
628.5000	78.1828
628.4000	78.3034
628.3000	78.4208
628.2000	78.5333
628.1000	78.6403
628.0000	78.741
627.9000	78.8322
627.8000	78.9216
627.7000	79.0062
627.6000	79.0764
627.5000	79.1467
627.4000	79.2059
627.3000	79.2576
627.2000	79.3055
627.1000	79.3392
627.0000	79.3685
626.9000	79.3878
626.8000	79.4028
626.7000	79.4024
626.6000	79.3966
626.5000	79.3828
626.4000	79.3646
626.3000	79.3416
626.2000	79.3069
626.1000	79.262
626.0000	79.2159
625.9000	79.1559
625.8000	79.0913
625.7000	79.0184
625.6000	78.9327
625.5000	78.8474
625.4000	78.7527
625.3000	78.6531
625.2000	78.548
625.1000	78.4401
625.0000	78.3237
624.9000	78.1984
624.8000	78.067
624.7000	77.9315
624.6000	77.79
624.5000	77.6457
624.4000	77.4932
624.3000	77.3414
624.2000	77.1871
624.1000	77.0275
624.0000	76.8705
623.9000	76.7084
623.8000	76.5484
623.7000	76.3881
623.6000	76.2181
623.5000	76.0504
623.4000	75.8892
623.3000	75.7308
623.2000	75.5723
623.1000	75.4092
623.0000	75.2519
622.9000	75.0952
622.8000	74.9476
622.7000	74.8017
622.6000	74.661
622.5000	74.5247
622.4000	74.3874
622.3000	74.2583
622.2000	74.1313
622.1000	74.009
622.0000	73.9019
621.9000	73.7943
621.8000	73.6955
621.7000	73.5998
621.6000	73.5103
621.5000	73.4364
621.4000	73.3656
621.3000	73.3058
621.2000	73.2457
621.1000	73.196
621.0000	73.1518
620.9000	73.1127
620.8000	73.0866
620.7000	73.0676
620.6000	73.0562
620.5000	73.0529
620.4000	73.0535
620.3000	73.0654
620.2000	73.0832
620.1000	73.1096
620.0000	73.1392
619.9000	73.1756
619.8000	73.2208
619.7000	73.2755
619.6000	73.338
619.5000	73.4066
619.4000	73.4798
619.3000	73.5628
619.2000	73.6503
619.1000	73.742
619.0000	73.8373
618.9000	73.9419
618.8000	74.0523
618.7000	74.1685
618.6000	74.277
618.5000	74.3961
618.4000	74.5232
618.3000	74.6516
618.2000	74.7818
618.1000	74.9081
618.0000	75.0417
617.9000	75.1731
617.8000	75.3085
617.7000	75.4441
617.6000	75.5785
617.5000	75.7122
617.4000	75.8478
617.3000	75.9744
617.2000	76.0979
617.1000	76.223
617.0000	76.3543
616.9000	76.4791
616.8000	76.5969
616.7000	76.7094
616.6000	76.82
616.5000	76.9271
616.4000	77.0268
616.3000	77.1214
616.2000	77.2097
616.1000	77.2889
616.0000	77.365
615.9000	77.4319
615.8000	77.4934
615.7000	77.5488
615.6000	77.5995
615.5000	77.6414
615.4000	77.6694
615.3000	77.6919
615.2000	77.7088
615.1000	77.7122
615.0000	77.7096
614.9000	77.6993
614.8000	77.677
614.7000	77.6507
614.6000	77.6085
614.5000	77.5623
614.4000	77.5073
614.3000	77.4425
614.2000	77.3702
614.1000	77.2905
614.0000	77.2047
613.9000	77.1027
613.8000	76.9977
613.7000	76.8829
613.6000	76.7605
613.5000	76.6371
613.4000	76.5043
613.3000	76.3622
613.2000	76.2193
613.1000	76.0671
613.0000	75.914
612.9000	75.7559
612.8000	75.5921
612.7000	75.4267
612.6000	75.256
612.5000	75.0829
612.4000	74.9024
612.3000	74.7259
612.2000	74.5506
612.1000	74.3701
612.0000	74.1886
611.9000	74.0035
611.8000	73.8208
611.7000	73.6402
611.6000	73.4603
611.5000	73.2808
611.4000	73.1082
611.3000	72.9354
611.2000	72.7645
611.1000	72.594
611.0000	72.4313
610.9000	72.2762
610.8000	72.1257
610.7000	71.9755
610.6000	71.8312
610.5000	71.6967
610.4000	71.5702
610.3000	71.4492
610.2000	71.3337
610.1000	71.2275
610.0000	71.1271
609.9000	71.035
609.8000	70.949
609.7000	70.8708
609.6000	70.8013
609.5000	70.7452
609.4000	70.6932
609.3000	70.642
609.2000	70.6059
609.1000	70.5832
609.0000	70.5654
608.9000	70.5534
608.8000	70.551
608.7000	70.5592
608.6000	70.5765
608.5000	70.5985
608.4000	70.6314
608.3000	70.6754
608.2000	70.7248
608.1000	70.7812
608.0000	70.8492
607.9000	70.921
607.8000	71.0022
607.7000	71.0957
607.6000	71.1902
607.5000	71.2874
607.4000	71.3921
607.3000	71.5066
607.2000	71.6233
607.1000	71.7423
607.0000	71.8693
606.9000	72.0021
606.8000	72.1351
606.7000	72.2719
606.6000	72.4104
606.5000	72.5586
606.4000	72.7011
606.3000	72.8492
606.2000	72.9956
606.1000	73.1399
606.0000	73.2851
605.9000	73.4322
605.8000	73.5762
605.7000	73.7166
605.6000	73.8583
605.5000	73.9993
605.4000	74.134
605.3000	74.2636
605.2000	74.3894
605.1000	74.5103
605.0000	74.6257
604.9000	74.7342
604.8000	74.8375
604.7000	74.9341
604.6000	75.0227
604.5000	75.1052
604.4000	75.1812
604.3000	75.2534
604.2000	75.3181
604.1000	75.3727
604.0000	75.4186
603.9000	75.4566
603.8000	75.4823
603.7000	75.5016
603.6000	75.5141
603.5000	75.5141
603.4000	75.5081
603.3000	75.4919
603.2000	75.4684
603.1000	75.4352
603.0000	75.3946
602.9000	75.3441
602.8000	75.2875
602.7000	75.2187
602.6000	75.1399
602.5000	75.0552
602.4000	74.9618
602.3000	74.8629
602.2000	74.7547
602.1000	74.6405
602.0000	74.5143
601.9000	74.386
601.8000	74.2495
601.7000	74.1077
601.6000	73.9617
601.5000	73.81
601.4000	73.653
601.3000	73.4959
601.2000	73.33
601.1000	73.1618
601.0000	72.9896
600.9000	72.8164
600.8000	72.6418
600.7000	72.463
600.6000	72.2891
600.5000	72.1107
600.4000	71.9345
600.3000	71.7595
600.2000	71.5858
600.1000	71.4142
600.0000	71.2381
599.9000	71.0741
599.8000	70.9115
599.7000	70.7548
599.6000	70.6014
599.5000	70.4476
599.4000	70.3043
599.3000	70.1659
599.2000	70.0312
599.1000	69.9089
599.0000	69.7932
598.9000	69.6845
598.8000	69.579
598.7000	69.4842
598.6000	69.3933
598.5000	69.3144
598.4000	69.2455
598.3000	69.1914
598.2000	69.1412
598.1000	69.0995
598.0000	69.0687
597.9000	69.0526
597.8000	69.0413
597.7000	69.0421
597.6000	69.051
597.5000	69.0632
597.4000	69.0872
597.3000	69.121
597.2000	69.1653
597.1000	69.2186
597.0000	69.2842
596.9000	69.3589
596.8000	69.4366
596.7000	69.5209
596.6000	69.6145
596.5000	69.7137
596.4000	69.8255
596.3000	69.9349
596.2000	70.0593
596.1000	70.1837
596.0000	70.3167
595.9000	70.4574
595.8000	70.6021
595.7000	70.7482
595.6000	70.9029
595.5000	71.0548
595.4000	71.2078
595.3000	71.3658
595.2000	71.5263
595.1000	71.6862
595.0000	71.8469
594.9000	72.0174
594.8000	72.1762
594.7000	72.3418
594.6000	72.496
594.5000	72.6538
594.4000	72.807
594.3000	72.9581
594.2000	73.1033
594.1000	73.246
594.0000	73.3825
593.9000	73.5179
593.8000	73.6439
593.7000	73.7655
593.6000	73.8768
593.5000	73.9858
593.4000	74.0883
593.3000	74.1715
593.2000	74.2587
593.1000	74.3295
593.0000	74.3978
592.9000	74.4563
592.8000	74.5061
592.7000	74.5503
592.6000	74.582
592.5000	74.6083
592.4000	74.6206
592.3000	74.624
592.2000	74.6217
592.1000	74.6067
592.0000	74.5876
591.9000	74.5541
591.8000	74.5126
591.7000	74.469
591.6000	74.4092
591.5000	74.3488
591.4000	74.2769
591.3000	74.1944
591.2000	74.1121
591.1000	74.0141
591.0000	73.9119
590.9000	73.8046
590.8000	73.6898
590.7000	73.5738
590.6000	73.4519
590.5000	73.3219
590.4000	73.1861
590.3000	73.0478
590.2000	72.9109
590.1000	72.7663
590.0000	72.6229
589.9000	72.4748
589.8000	72.3285
589.7000	72.1855
589.6000	72.0344
589.5000	71.8908
589.4000	71.7476
589.3000	71.6027
589.2000	71.4633
589.1000	71.3235
589.0000	71.1859
588.9000	71.0532
588.8000	70.927
588.7000	70.8055
588.6000	70.685
588.5000	70.574
588.4000	70.4637
588.3000	70.3634
588.2000	70.2686
588.1000	70.1755
588.0000	70.0955
587.9000	70.0155
587.8000	69.9512
587.7000	69.8901
587.6000	69.8395
587.5000	69.7935
587.4000	69.7583
587.3000	69.7327
587.2000	69.717
587.1000	69.7089
587.0000	69.7073
586.9000	69.7156
586.8000	69.7368
586.7000	69.7661
586.6000	69.8016
586.5000	69.85
586.4000	69.9055
586.3000	69.9725
586.2000	70.0412
586.1000	70.1228
586.0000	70.2121
585.9000	70.31
585.8000	70.4128
585.7000	70.5222
585.6000	70.6354
585.5000	70.7594
585.4000	70.8909
585.3000	71.0236
585.2000	71.1619
585.1000	71.3032
585.0000	71.4482
584.9000	71.5939
584.8000	71.7373
584.7000	71.8932
584.6000	72.0473
584.5000	72.2058
584.4000	72.3562
584.3000	72.5086
584.2000	72.6671
584.1000	72.8258
584.0000	72.9833
583.9000	73.1394
583.8000	73.2884
583.7000	73.4341
583.6000	73.5757
583.5000	73.7141
583.4000	73.8524
583.3000	73.9875
583.2000	74.1216
583.1000	74.2384
583.0000	74.3552
582.9000	74.4639
582.8000	74.5696
582.7000	74.6661
582.6000	74.7522
582.5000	74.8305
582.4000	74.9024
582.3000	74.9632
582.2000	75.0234
582.1000	75.0713
582.0000	75.1128
581.9000	75.1486
581.8000	75.1724
581.7000	75.1856
581.6000	75.1905
581.5000	75.1879
581.4000	75.1778
581.3000	75.1569
581.2000	75.1302
581.1000	75.097
581.0000	75.0569
580.9000	75.0034
580.8000	74.9424
580.7000	74.8739
580.6000	74.7992
580.5000	74.7272
580.4000	74.643
580.3000	74.5498
580.2000	74.4538
580.1000	74.3546
580.0000	74.2518
579.9000	74.1436
579.8000	74.0292
579.7000	73.9143
579.6000	73.7959
579.5000	73.6797
579.4000	73.5535
579.3000	73.4388
579.2000	73.3209
579.1000	73.2067
579.0000	73.0886
578.9000	72.9632
578.8000	72.8481
578.7000	72.7361
578.6000	72.6233
578.5000	72.5134
578.4000	72.4089
578.3000	72.312
578.2000	72.2188
578.1000	72.1277
578.0000	72.0451
577.9000	71.9631
577.8000	71.8957
577.7000	71.8258
577.6000	71.7639
577.5000	71.707
577.4000	71.6583
577.3000	71.623
577.2000	71.592
577.1000	71.5671
577.0000	71.5543
576.9000	71.5456
576.8000	71.5424
576.7000	71.5477
576.6000	71.5618
576.5000	71.5862
576.4000	71.6124
576.3000	71.6497
576.2000	71.693
576.1000	71.744
576.0000	71.806
575.9000	71.8739
575.8000	71.9475
575.7000	72.0258
575.6000	72.1071
575.5000	72.1942
575.4000	72.2888
575.3000	72.3895
575.2000	72.4945
575.1000	72.6043
575.0000	72.7176
574.9000	72.8326
574.8000	72.9543
574.7000	73.0801
574.6000	73.2021
574.5000	73.3308
574.4000	73.4564
574.3000	73.5811
574.2000	73.7062
574.1000	73.8335
574.0000	73.9608
573.9000	74.0907
573.8000	74.2149
573.7000	74.338
573.6000	74.455
573.5000	74.5711
573.4000	74.6877
573.3000	74.7978
573.2000	74.9009
573.1000	74.9988
573.0000	75.097
572.9000	75.1849
572.8000	75.2659
572.7000	75.341
572.6000	75.4114
572.5000	75.4757
572.4000	75.532
572.3000	75.5788
572.2000	75.6166
572.1000	75.6489
572.0000	75.6792
571.9000	75.6933
571.8000	75.698
571.7000	75.6977
571.6000	75.6879
571.5000	75.6743
571.4000	75.6469
571.3000	75.6143
571.2000	75.5764
571.1000	75.5295
571.0000	75.4768
570.9000	75.4113
570.8000	75.3447
570.7000	75.268
570.6000	75.1875
570.5000	75.1011
570.4000	75.006
570.3000	74.9138
570.2000	74.8137
570.1000	74.7091
570.0000	74.6033
569.9000	74.4898
569.8000	74.377
569.7000	74.263
569.6000	74.1463
569.5000	74.0319
569.4000	73.9154
569.3000	73.8021
569.2000	73.6848
569.1000	73.5711
569.0000	73.4579
568.9000	73.3476
568.8000	73.2396
568.7000	73.1301
568.6000	73.0258
568.5000	72.9286
568.4000	72.8352
568.3000	72.7411
568.2000	72.6592
568.1000	72.5787
568.0000	72.5036
567.9000	72.4349
567.8000	72.3744
567.7000	72.3181
567.6000	72.2697
567.5000	72.228
567.4000	72.1923
567.3000	72.1636
567.2000	72.1416
567.1000	72.1299
567.0000	72.1251
566.9000	72.1239
566.8000	72.1311
566.7000	72.1518
566.6000	72.1722
566.5000	72.2023
566.4000	72.2385
566.3000	72.2822
566.2000	72.3295
566.1000	72.3905
566.0000	72.4519
565.9000	72.5178
565.8000	72.5905
565.7000	72.6654
565.6000	72.7483
565.5000	72.8344
565.4000	72.922
565.3000	73.0141
565.2000	73.1105
565.1000	73.202
565.0000	73.303
564.9000	73.4025
564.8000	73.503
564.7000	73.6027
564.6000	73.7029
564.5000	73.8
564.4000	73.8959
564.3000	73.9916
564.2000	74.0863
564.1000	74.1782
564.0000	74.2627
563.9000	74.3451
563.8000	74.4263
563.7000	74.5016
563.6000	74.5711
563.5000	74.635
563.4000	74.688
563.3000	74.7382
563.2000	74.7859
563.1000	74.8239
563.0000	74.8504
562.9000	74.8686
562.8000	74.8828
562.7000	74.8891
562.6000	74.8893
562.5000	74.8815
562.4000	74.8687
562.3000	74.8448
562.2000	74.8106
562.1000	74.7732
562.0000	74.7225
561.9000	74.67
561.8000	74.6115
561.7000	74.5441
561.6000	74.4654
561.5000	74.3834
561.4000	74.2971
561.3000	74.2038
561.2000	74.1062
561.1000	74.0001
561.0000	73.8895
560.9000	73.7723
560.8000	73.654
560.7000	73.5309
560.6000	73.4077
560.5000	73.2769
560.4000	73.148
560.3000	73.0165
560.2000	72.8824
560.1000	72.7473
560.0000	72.6119
559.9000	72.4754
559.8000	72.3409
559.7000	72.2062
559.6000	72.0754
559.5000	71.9463
559.4000	71.8183
559.3000	71.6992
559.2000	71.5781
559.1000	71.4636
559.0000	71.3503
558.9000	71.2458
558.8000	71.1457
558.7000	71.0504
558.6000	70.9638
558.5000	70.8795
558.4000	70.8061
558.3000	70.7403
558.2000	70.6828
558.1000	70.6296
558.0000	70.5818
557.9000	70.5469
557.8000	70.5173
557.7000	70.4953
557.6000	70.4814
557.5000	70.4782
557.4000	70.4788
557.3000	70.4856
557.2000	70.5059
557.1000	70.5332
557.0000	70.5625
556.9000	70.5999
556.8000	70.6453
556.7000	70.6974
556.6000	70.7549
556.5000	70.8201
556.4000	70.8928
556.3000	70.9645
556.2000	71.0411
556.1000	71.1225
556.0000	71.209
555.9000	71.2946
555.8000	71.3886
555.7000	71.4805
555.6000	71.5728
555.5000	71.6626
555.4000	71.7579
555.3000	71.854
555.2000	71.9427
555.1000	72.0328
555.0000	72.1192
554.9000	72.2069
554.8000	72.2864
554.7000	72.3633
554.6000	72.4372
554.5000	72.5026
554.4000	72.5651
554.3000	72.621
554.2000	72.6717
554.1000	72.719
554.0000	72.7534
553.9000	72.7854
553.8000	72.8102
553.7000	72.8239
553.6000	72.8343
553.5000	72.8359
553.4000	72.8282
553.3000	72.8084
553.2000	72.7819
553.1000	72.756
553.0000	72.7188
552.9000	72.673
552.8000	72.6143
552.7000	72.5483
552.6000	72.4757
552.5000	72.3936
552.4000	72.309
552.3000	72.2145
552.2000	72.1105
552.1000	72.0069
552.0000	71.8964
551.9000	71.7755
551.8000	71.657
551.7000	71.53
551.6000	71.3998
551.5000	71.26
551.4000	71.1186
551.3000	70.9802
551.2000	70.8365
551.1000	70.696
551.0000	70.5536
550.9000	70.4127
550.8000	70.2682
550.7000	70.1264
550.6000	69.9856
550.5000	69.8446
550.4000	69.7059
550.3000	69.5733
550.2000	69.4372
550.1000	69.314
550.0000	69.1944
549.9000	69.0804
549.8000	68.9742
549.7000	68.8672
549.6000	68.7755
549.5000	68.6868
549.4000	68.6037
549.3000	68.5301
549.2000	68.4621
549.1000	68.4045
549.0000	68.3568
548.9000	68.3175
548.8000	68.2862
548.7000	68.2605
548.6000	68.2492
548.5000	68.2406
548.4000	68.2393
548.3000	68.2516
548.2000	68.2693
548.1000	68.296
548.0000	68.3269
547.9000	68.3684
547.8000	68.4172
547.7000	68.4707
547.6000	68.5333
547.5000	68.6019
547.4000	68.6756
547.3000	68.7554
547.2000	68.8373
547.1000	68.9268
547.0000	69.0201
546.9000	69.1161
546.8000	69.2148
546.7000	69.312
546.6000	69.4167
546.5000	69.5216
546.4000	69.6282
546.3000	69.7303
546.2000	69.8344
546.1000	69.9376
546.0000	70.0379
545.9000	70.1361
545.8000	70.2298
545.7000	70.3174
545.6000	70.4044
545.5000	70.4873
545.4000	70.5596
545.3000	70.6307
545.2000	70.6993
545.1000	70.759
545.0000	70.8086
544.9000	70.8552
544.8000	70.8899
544.7000	70.9206
544.6000	70.9434
544.5000	70.9554
544.4000	70.9636
544.3000	70.9655
544.2000	70.9589
544.1000	70.9454
544.0000	70.921
543.9000	70.8881
543.8000	70.8492
543.7000	70.8029
543.6000	70.7459
543.5000	70.6795
543.4000	70.6108
543.3000	70.534
543.2000	70.4555
543.1000	70.3696
543.0000	70.2759
542.9000	70.1814
542.8000	70.0802
542.7000	69.9706
542.6000	69.8593
542.5000	69.7447
542.4000	69.63
542.3000	69.5135
542.2000	69.3938
542.1000	69.2726
542.0000	69.1555
541.9000	69.0419
541.8000	68.9208
541.7000	68.8038
541.6000	68.6882
541.5000	68.5736
541.4000	68.4622
541.3000	68.3532
541.2000	68.2457
541.1000	68.1464
541.0000	68.0527
540.9000	67.9667
540.8000	67.8857
540.7000	67.8123
540.6000	67.748
540.5000	67.6895
540.4000	67.6334
540.3000	67.5832
540.2000	67.5454
540.1000	67.5119
540.0000	67.4859
539.9000	67.474
539.8000	67.4684
539.7000	67.4714
539.6000	67.4834
539.5000	67.5042
539.4000	67.5308
539.3000	67.5617
539.2000	67.6025
539.1000	67.651
539.0000	67.7016
538.9000	67.7632
538.8000	67.8333
538.7000	67.9108
538.6000	67.9921
538.5000	68.0823
538.4000	68.1777
538.3000	68.2704
538.2000	68.3734
538.1000	68.4753
538.0000	68.5852
537.9000	68.6915
537.8000	68.8053
537.7000	68.9175
537.6000	69.0324
537.5000	69.1422
537.4000	69.2592
537.3000	69.3694
537.2000	69.4806
537.1000	69.5875
537.0000	69.6938
536.9000	69.7927
536.8000	69.8882
536.7000	69.9771
536.6000	70.0637
536.5000	70.1482
536.4000	70.2234
536.3000	70.2966
536.2000	70.3609
536.1000	70.4218
536.0000	70.4758
535.9000	70.5201
535.8000	70.5569
535.7000	70.5884
535.6000	70.6128
535.5000	70.6298
535.4000	70.6403
535.3000	70.646
535.2000	70.6437
535.1000	70.6365
535.0000	70.6172
534.9000	70.5922
534.8000	70.5599
534.7000	70.5239
534.6000	70.4802
534.5000	70.43
534.4000	70.3726
534.3000	70.3176
534.2000	70.254
534.1000	70.1872
534.0000	70.114
533.9000	70.0398
533.8000	69.9582
533.7000	69.8772
533.6000	69.7925
533.5000	69.7109
533.4000	69.6264
533.3000	69.5418
533.2000	69.4581
533.1000	69.3731
533.0000	69.2876
532.9000	69.2101
532.8000	69.1329
532.7000	69.0567
532.6000	68.9875
532.5000	68.9202
532.4000	68.8572
532.3000	68.7983
532.2000	68.7493
532.1000	68.7019
532.0000	68.6625
531.9000	68.6288
531.8000	68.5992
531.7000	68.5776
531.6000	68.5623
531.5000	68.5528
531.4000	68.554
531.3000	68.5584
531.2000	68.5716
531.1000	68.5892
531.0000	68.6158
530.9000	68.6488
530.8000	68.6848
530.7000	68.7319
530.6000	68.7852
530.5000	68.8439
530.4000	68.9056
530.3000	68.9724
530.2000	69.0479
530.1000	69.1269
530.0000	69.2102
529.9000	69.2995
529.8000	69.3887
529.7000	69.4822
529.6000	69.5724
529.5000	69.6687
529.4000	69.7661
529.3000	69.8641
529.2000	69.9651
529.1000	70.0595
529.0000	70.1558
528.9000	70.252
528.8000	70.3487
528.7000	70.4381
528.6000	70.5273
528.5000	70.6126
528.4000	70.699
528.3000	70.7754
528.2000	70.8525
528.1000	70.9195
528.0000	70.9887
527.9000	71.0533
527.8000	71.1062
527.7000	71.1532
527.6000	71.1942
527.5000	71.2354
527.4000	71.2654
527.3000	71.2904
527.2000	71.3097
527.1000	71.3243
527.0000	71.3308
526.9000	71.3313
526.8000	71.3218
526.7000	71.3124
526.6000	71.2928
526.5000	71.2721
526.4000	71.2427
526.3000	71.2097
526.2000	71.172
526.1000	71.133
526.0000	71.0945
525.9000	71.0428
525.8000	70.9928
525.7000	70.9361
525.6000	70.8781
525.5000	70.8163
525.4000	70.7561
525.3000	70.6942
525.2000	70.6327
525.1000	70.5709
525.0000	70.5077
524.9000	70.448
524.8000	70.3877
524.7000	70.3256
524.6000	70.2702
524.5000	70.2153
524.4000	70.1589
524.3000	70.1127
524.2000	70.0652
524.1000	70.0211
524.0000	69.9829
523.9000	69.9531
523.8000	69.9249
523.7000	69.9034
523.6000	69.8864
523.5000	69.8702
523.4000	69.8613
523.3000	69.8566
523.2000	69.8584
523.1000	69.8711
523.0000	69.8826
522.9000	69.8999
522.8000	69.9251
522.7000	69.9525
522.6000	69.9825
522.5000	70.0252
522.4000	70.0635
522.3000	70.1094
522.2000	70.1618
522.1000	70.2114
522.0000	70.2663
521.9000	70.3229
521.8000	70.3842
521.7000	70.4446
521.6000	70.5079
521.5000	70.5691
521.4000	70.6334
521.3000	70.6976
521.2000	70.7599
521.1000	70.8218
521.0000	70.8876
520.9000	70.9463
520.8000	71.0058
520.7000	71.0608
520.6000	71.1092
520.5000	71.1629
520.4000	71.2073
520.3000	71.2463
520.2000	71.2844
520.1000	71.3162
520.0000	71.3772
519.9000	71.4039
519.8000	71.4159
519.7000	71.4321
519.6000	71.4352
519.5000	71.4356
519.4000	71.4298
519.3000	71.4142
519.2000	71.3966
519.1000	71.3716
519.0000	71.3464
518.9000	71.3129
518.8000	71.2714
518.7000	71.2279
518.6000	71.1809
518.5000	71.1271
518.4000	71.0693
518.3000	71.0046
518.2000	70.9514
518.1000	70.885
518.0000	70.8185
517.9000	70.7485
517.8000	70.6798
517.7000	70.6107
517.6000	70.5345
517.5000	70.4617
517.4000	70.3872
517.3000	70.3146
517.2000	70.2464
517.1000	70.1755
517.0000	70.1096
516.9000	70.0468
516.8000	69.9876
516.7000	69.929
516.6000	69.8647
516.5000	69.8103
516.4000	69.7605
516.3000	69.7136
516.2000	69.6696
516.1000	69.6318
516.0000	69.6027
515.9000	69.5773
515.8000	69.5554
515.7000	69.5363
515.6000	69.5247
515.5000	69.5172
515.4000	69.5139
515.3000	69.513
515.2000	69.5179
515.1000	69.5277
515.0000	69.5434
514.9000	69.5597
514.8000	69.5784
514.7000	69.6017
514.6000	69.6293
514.5000	69.6604
514.4000	69.6889
514.3000	69.7188
514.2000	69.7561
514.1000	69.7924
514.0000	69.824
513.9000	69.8596
513.8000	69.895
513.7000	69.9311
513.6000	69.9637
513.5000	69.9982
513.4000	70.033
513.3000	70.0621
513.2000	70.0913
513.1000	70.1195
513.0000	70.1395
512.9000	70.1557
512.8000	70.1727
512.7000	70.1829
512.6000	70.1845
512.5000	70.1874
512.4000	70.1885
512.3000	70.1832
512.2000	70.1721
512.1000	70.1538
512.0000	70.1338
511.9000	70.1048
511.8000	70.0711
511.7000	70.0318
511.6000	69.9894
511.5000	69.9378
511.4000	69.8858
511.3000	69.8275
511.2000	69.7665
511.1000	69.7017
511.0000	69.6333
510.9000	69.5577
510.8000	69.4783
510.7000	69.3947
510.6000	69.3104
510.5000	69.2255
510.4000	69.1297
510.3000	69.0375
510.2000	68.946
510.1000	68.8557
510.0000	68.7644
509.9000	68.6721
509.8000	68.5815
509.7000	68.4926
509.6000	68.4053
509.5000	68.3197
509.4000	68.2339
509.3000	68.1527
509.2000	68.0778
509.1000	68.0048
509.0000	67.9362
508.9000	67.8712
508.8000	67.819
508.7000	67.7657
508.6000	67.7134
508.5000	67.6705
508.4000	67.6321
508.3000	67.6015
508.2000	67.5722
508.1000	67.5523
508.0000	67.533
507.9000	67.522
507.8000	67.5168
507.7000	67.5156
507.6000	67.5155
507.5000	67.5248
507.4000	67.5371
507.3000	67.5524
507.2000	67.5688
507.1000	67.5923
507.0000	67.6224
506.9000	67.6514
506.8000	67.6795
506.7000	67.7109
506.6000	67.7469
506.5000	67.7799
506.4000	67.8158
506.3000	67.8505
506.2000	67.8833
506.1000	67.9178
506.0000	67.9502
505.9000	67.9805
505.8000	68.0095
505.7000	68.0372
505.6000	68.06
505.5000	68.0794
505.4000	68.0896
505.3000	68.0992
505.2000	68.1044
505.1000	68.1046
505.0000	68.0981
504.9000	68.0859
504.8000	68.0721
504.7000	68.0516
504.6000	68.0309
504.5000	68.0013
504.4000	67.9683
504.3000	67.9303
504.2000	67.8845
504.1000	67.8339
504.0000	67.7778
503.9000	67.7172
503.8000	67.657
503.7000	67.5871
503.6000	67.517
503.5000	67.4429
503.4000	67.3676
503.3000	67.2945
503.2000	67.2115
503.1000	67.1288
503.0000	67.0464
502.9000	66.9616
502.8000	66.8766
502.7000	66.7886
502.6000	66.7058
502.5000	66.6252
502.4000	66.5471
502.3000	66.4669
502.2000	66.3896
502.1000	66.318
502.0000	66.252
501.9000	66.1879
501.8000	66.1248
501.7000	66.0661
501.6000	66.0149
501.5000	65.9683
501.4000	65.9223
501.3000	65.8852
501.2000	65.8547
501.1000	65.8291
501.0000	65.806
500.9000	65.7891
500.8000	65.7766
500.7000	65.7738
500.6000	65.7752
500.5000	65.7779
500.4000	65.7855
500.3000	65.8014
500.2000	65.823
500.1000	65.8439
500.0000	65.8717
499.9000	65.9018
499.8000	65.9382
499.7000	65.9754
499.6000	66.0129
499.5000	66.0541
499.4000	66.0975
499.3000	66.1437
499.2000	66.1895
499.1000	66.2358
499.0000	66.2832
498.9000	66.3325
498.8000	66.376
498.7000	66.4183
498.6000	66.4594
498.5000	66.5
498.4000	66.536
498.3000	66.571
498.2000	66.6012
498.1000	66.6328
498.0000	66.66
497.9000	66.681
497.8000	66.7012
497.7000	66.7112
497.6000	66.7227
497.5000	66.7274
497.4000	66.723
497.3000	66.7217
497.2000	66.7164
497.1000	66.7024
497.0000	66.6835
496.9000	66.6607
496.8000	66.6345
496.7000	66.603
496.6000	66.5684
496.5000	66.5298
496.4000	66.4884
496.3000	66.4475
496.2000	66.4009
496.1000	66.3561
496.0000	66.3066
495.9000	66.257
495.8000	66.214
495.7000	66.1599
495.6000	66.1076
495.5000	66.057
495.4000	66.0108
495.3000	65.9616
495.2000	65.9172
495.1000	65.8715
495.0000	65.8311
494.9000	65.7922
494.8000	65.7592
494.7000	65.7258
494.6000	65.6937
494.5000	65.6682
494.4000	65.6472
494.3000	65.6288
494.2000	65.6131
494.1000	65.6057
494.0000	65.601
493.9000	65.6058
493.8000	65.6132
493.7000	65.6245
493.6000	65.6405
493.5000	65.6657
493.4000	65.6872
493.3000	65.7134
493.2000	65.7427
493.1000	65.7813
493.0000	65.8191
492.9000	65.858
492.8000	65.9026
492.7000	65.9487
492.6000	65.9961
492.5000	66.0423
492.4000	66.0915
492.3000	66.1414
492.2000	66.1911
492.1000	66.2457
492.0000	66.2963
491.9000	66.3438
491.8000	66.396
491.7000	66.4453
491.6000	66.4927
491.5000	66.5372
491.4000	66.5873
491.3000	66.6298
491.2000	66.6675
491.1000	66.7077
491.0000	66.7438
490.9000	66.7764
490.8000	66.8062
490.7000	66.8352
490.6000	66.8581
490.5000	66.8744
490.4000	66.8889
490.3000	66.9034
490.2000	66.9105
490.1000	66.9185
490.0000	66.9205
489.9000	66.9176
489.8000	66.9128
489.7000	66.9078
489.6000	66.8985
489.5000	66.8864
489.4000	66.8696
489.3000	66.8569
489.2000	66.8419
489.1000	66.8193
489.0000	66.8012
488.9000	66.785
488.8000	66.7682
488.7000	66.7497
488.6000	66.7311
488.5000	66.7108
488.4000	66.6943
488.3000	66.6827
488.2000	66.6687
488.1000	66.6553
488.0000	66.6487
487.9000	66.6423
487.8000	66.6367
487.7000	66.6307
487.6000	66.6305
487.5000	66.6352
487.4000	66.6396
487.3000	66.6432
487.2000	66.6522
487.1000	66.6632
487.0000	66.6792
486.9000	66.6976
486.8000	66.7161
486.7000	66.7384
486.6000	66.7612
486.5000	66.7915
486.4000	66.819
486.3000	66.8468
486.2000	66.8798
486.1000	66.9146
486.0000	66.9481
485.9000	66.9778
485.8000	67.0098
485.7000	67.0467
485.6000	67.0789
485.5000	67.1148
485.4000	67.1474
485.3000	67.1791
485.2000	67.2161
485.1000	67.2478
485.0000	67.2793
484.9000	67.3068
484.8000	67.3345
484.7000	67.3582
484.6000	67.3817
484.5000	67.4035
484.4000	67.417
484.3000	67.4344
484.2000	67.4515
484.1000	67.4619
484.0000	67.474
483.9000	67.4811
483.8000	67.4891
483.7000	67.4949
483.6000	67.493
483.5000	67.4901
483.4000	67.4842
483.3000	67.4768
483.2000	67.4668
483.1000	67.4594
483.0000	67.4502
482.9000	67.4383
482.8000	67.431
482.7000	67.4191
482.6000	67.4056
482.5000	67.3933
482.4000	67.3771
482.3000	67.3616
482.2000	67.3441
482.1000	67.3283
482.0000	67.3163
481.9000	67.3042
481.8000	67.2968
481.7000	67.2847
481.6000	67.2752
481.5000	67.2656
481.4000	67.2569
481.3000	67.2508
481.2000	67.2442
481.1000	67.2434
481.0000	67.238
480.9000	67.2381
480.8000	67.24
480.7000	67.2412
480.6000	67.2475
480.5000	67.2549
480.4000	67.2608
480.3000	67.2638
480.2000	67.265
480.1000	67.2691
480.0000	67.2758
479.9000	67.2808
479.8000	67.2874
479.7000	67.2947
479.6000	67.2978
479.5000	67.3058
479.4000	67.3104
479.3000	67.314
479.2000	67.3146
479.1000	67.3192
479.0000	67.3212
478.9000	67.3183
478.8000	67.3114
478.7000	67.3064
478.6000	67.3005
478.5000	67.2959
478.4000	67.2856
478.3000	67.2761
478.2000	67.2596
478.1000	67.2415
478.0000	67.2282
477.9000	67.2025
477.8000	67.1794
477.7000	67.1565
477.6000	67.1338
477.5000	67.103
477.4000	67.0714
477.3000	67.0382
477.2000	67.0075
477.1000	66.9697
477.0000	66.9322
476.9000	66.8941
476.8000	66.8562
476.7000	66.8195
476.6000	66.7835
476.5000	66.7454
476.4000	66.7031
476.3000	66.6645
476.2000	66.6298
476.1000	66.59
476.0000	66.5539
475.9000	66.5154
475.8000	66.4807
475.7000	66.4449
475.6000	66.4065
475.5000	66.3756
475.4000	66.3487
475.3000	66.3212
475.2000	66.2947
475.1000	66.2657
475.0000	66.2426
474.9000	66.222
474.8000	66.2017
474.7000	66.1832
474.6000	66.1589
474.5000	66.1414
474.4000	66.1207
474.3000	66.1063
474.2000	66.0883
474.1000	66.0805
474.0000	66.0718
473.9000	66.0606
473.8000	66.0481
473.7000	66.033
473.6000	66.0187
473.5000	66.0055
473.4000	65.9874
473.3000	65.9687
473.2000	65.9501
473.1000	65.9305
473.0000	65.9167
472.9000	65.8943
472.8000	65.8743
472.7000	65.8486
472.6000	65.8273
472.5000	65.7979
472.4000	65.7682
472.3000	65.7378
472.2000	65.6999
472.1000	65.6664
472.0000	65.6259
471.9000	65.5854
471.8000	65.546
471.7000	65.5014
471.6000	65.4594
471.5000	65.4119
471.4000	65.3578
471.3000	65.309
471.2000	65.2547
471.1000	65.2041
471.0000	65.1494
470.9000	65.0937
470.8000	65.0371
470.7000	64.9806
470.6000	64.9273
470.5000	64.871
470.4000	64.8198
470.3000	64.7684
470.2000	64.7131
470.1000	64.6613
470.0000	64.6098
469.9000	64.5586
469.8000	64.513
469.7000	64.4662
469.6000	64.4246
469.5000	64.3825
469.4000	64.3403
469.3000	64.2992
469.2000	64.2629
469.1000	64.227
469.0000	64.1967
468.9000	64.1654
468.8000	64.1374
468.7000	64.107
468.6000	64.0833
468.5000	64.0589
468.4000	64.0357
468.3000	64.019
468.2000	64.0011
468.1000	63.9836
468.0000	63.9621
467.9000	63.946
467.8000	63.9285
467.7000	63.9167
467.6000	63.9018
467.5000	63.8874
467.4000	63.8693
467.3000	63.8549
467.2000	63.8371
467.1000	63.8216
467.0000	63.8062
466.9000	63.7878
466.8000	63.7693
466.7000	63.7454
466.6000	63.7204
466.5000	63.6958
466.4000	63.6766
466.3000	63.6499
466.2000	63.6231
466.1000	63.5874
466.0000	63.5561
465.9000	63.5207
465.8000	63.4877
465.7000	63.4539
465.6000	63.419
465.5000	63.3792
465.4000	63.3392
465.3000	63.2997
465.2000	63.2609
465.1000	63.2195
465.0000	63.1831
464.9000	63.1436
464.8000	63.1024
464.7000	63.06
464.6000	63.0198
464.5000	62.9831
464.4000	62.9446
464.3000	62.9103
464.2000	62.8733
464.1000	62.8377
464.0000	62.8042
463.9000	62.7743
463.8000	62.7468
463.7000	62.718
463.6000	62.6926
463.5000	62.6717
463.4000	62.648
463.3000	62.6257
463.2000	62.604
463.1000	62.5897
463.0000	62.5756
462.9000	62.5649
462.8000	62.5533
462.7000	62.5436
462.6000	62.5367
462.5000	62.5281
462.4000	62.5188
462.3000	62.5157
462.2000	62.5096
462.1000	62.5077
462.0000	62.5045
461.9000	62.5008
461.8000	62.4956
461.7000	62.4958
461.6000	62.4945
461.5000	62.4933
461.4000	62.4877
461.3000	62.4807
461.2000	62.4791
461.1000	62.4761
461.0000	62.4726
460.9000	62.4677
460.8000	62.4654
460.7000	62.4566
460.6000	62.4475
460.5000	62.4399
460.4000	62.4275
460.3000	62.4211
460.2000	62.4143
460.1000	62.4032
460.0000	62.3919
459.9000	62.3749
459.8000	62.3652
459.7000	62.3536
459.6000	62.3411
459.5000	62.3334
459.4000	62.3204
459.3000	62.3125
459.2000	62.2993
459.1000	62.2908
459.0000	62.2841
458.9000	62.2749
458.8000	62.2676
458.7000	62.2579
458.6000	62.2514
458.5000	62.2458
458.4000	62.2429
458.3000	62.2447
458.2000	62.2445
458.1000	62.2466
458.0000	62.2465
457.9000	62.2459
457.8000	62.248
457.7000	62.2484
457.6000	62.2545
457.5000	62.2587
457.4000	62.263
457.3000	62.2707
457.2000	62.2789
457.1000	62.2864
457.0000	62.2942
456.9000	62.3034
456.8000	62.3107
456.7000	62.3186
456.6000	62.3277
456.5000	62.3346
456.4000	62.3443
456.3000	62.3496
456.2000	62.3576
456.1000	62.3648
456.0000	62.3702
455.9000	62.3758
455.8000	62.3793
455.7000	62.3844
455.6000	62.3855
455.5000	62.3914
455.4000	62.3924
455.3000	62.3913
455.2000	62.3938
455.1000	62.3911
455.0000	62.3877
454.9000	62.3869
454.8000	62.3836
454.7000	62.3806
454.6000	62.3766
454.5000	62.3791
454.4000	62.3775
454.3000	62.3761
454.2000	62.3751
454.1000	62.3735
454.0000	62.3729
453.9000	62.3734
453.8000	62.3766
453.7000	62.3779
453.6000	62.3802
453.5000	62.3845
453.4000	62.3931
453.3000	62.3993
453.2000	62.4072
453.1000	62.4185
453.0000	62.4284
452.9000	62.4338
452.8000	62.4474
452.7000	62.4582
452.6000	62.4696
452.5000	62.4819
452.4000	62.4959
452.3000	62.5041
452.2000	62.5166
452.1000	62.5332
452.0000	62.5419
451.9000	62.5546
451.8000	62.5638
451.7000	62.5755
451.6000	62.5832
451.5000	62.5908
451.4000	62.5937
451.3000	62.5974
451.2000	62.5981
451.1000	62.5974
451.0000	62.5994
450.9000	62.598
450.8000	62.5965
450.7000	62.5942
450.6000	62.5876
450.5000	62.5773
450.4000	62.5716
450.3000	62.5611
450.2000	62.5486
450.1000	62.5346
450.0000	62.52
449.9000	62.5016
449.8000	62.49
449.7000	62.472
449.6000	62.4557
449.5000	62.4406
449.4000	62.4184
449.3000	62.3973
449.2000	62.3792
449.1000	62.3553
449.0000	62.3347
448.9000	62.3132
448.8000	62.2919
448.7000	62.2726
448.6000	62.2529
448.5000	62.2347
448.4000	62.2191
448.3000	62.2069
448.2000	62.1886
448.1000	62.1732
448.0000	62.1576
447.9000	62.1423
447.8000	62.1329
447.7000	62.1266
447.6000	62.1143
447.5000	62.1074
447.4000	62.099
447.3000	62.0919
447.2000	62.0812
447.1000	62.0715
447.0000	62.0673
446.9000	62.0588
446.8000	62.0477
446.7000	62.0305
446.6000	62.023
446.5000	62.0139
446.4000	62.0017
446.3000	61.9884
446.2000	61.9717
446.1000	61.9497
446.0000	61.9308
445.9000	61.9111
445.8000	61.8897
445.7000	61.8586
445.6000	61.8338
445.5000	61.8061
445.4000	61.7692
445.3000	61.7317
445.2000	61.6946
445.1000	61.6602
445.0000	61.6146
444.9000	61.566
444.8000	61.5211
444.7000	61.4736
444.6000	61.4236
444.5000	61.3762
444.4000	61.3221
444.3000	61.2664
444.2000	61.209
444.1000	61.1599
444.0000	61.1077
443.9000	61.0537
443.8000	61.0024
443.7000	60.9534
443.6000	60.9053
443.5000	60.856
443.4000	60.8104
443.3000	60.7673
443.2000	60.7189
443.1000	60.6758
443.0000	60.6332
442.9000	60.5899
442.8000	60.5519
442.7000	60.5129
442.6000	60.48
442.5000	60.4454
442.4000	60.4068
442.3000	60.3694
442.2000	60.333
442.1000	60.2966
442.0000	60.2582
441.9000	60.2238
441.8000	60.1905
441.7000	60.1572
441.6000	60.1228
441.5000	60.0857
441.4000	60.051
441.3000	60.0144
441.2000	59.9732
441.1000	59.9352
441.0000	59.8916
440.9000	59.8474
440.8000	59.8067
440.7000	59.7624
440.6000	59.7146
440.5000	59.6657
440.4000	59.6161
440.3000	59.5619
440.2000	59.507
440.1000	59.4494
440.0000	59.3883
439.9000	59.3296
439.8000	59.2671
439.7000	59.202
439.6000	59.1421
439.5000	59.0774
439.4000	59.0115
439.3000	58.9462
439.2000	58.8794
439.1000	58.8117
439.0000	58.7455
438.9000	58.6822
438.8000	58.6209
438.7000	58.5578
438.6000	58.496
438.5000	58.4364
438.4000	58.3795
438.3000	58.3203
438.2000	58.2678
438.1000	58.2179
438.0000	58.1637
437.9000	58.1167
437.8000	58.0706
437.7000	58.0278
437.6000	57.9849
437.5000	57.9465
437.4000	57.9096
437.3000	57.8685
437.2000	57.8282
437.1000	57.7939
437.0000	57.7578
436.9000	57.7258
436.8000	57.6904
436.7000	57.6578
436.6000	57.6225
436.5000	57.5876
436.4000	57.5508
436.3000	57.5123
436.2000	57.4737
436.1000	57.4337
436.0000	57.3914
435.9000	57.3496
435.8000	57.3045
435.7000	57.2634
435.6000	57.2178
435.5000	57.1671
435.4000	57.1181
435.3000	57.0652
435.2000	57.0177
435.1000	56.9693
435.0000	56.9134
434.9000	56.8573
434.8000	56.8065
434.7000	56.7535
434.6000	56.6961
434.5000	56.6423
434.4000	56.5892
434.3000	56.5388
434.2000	56.4847
434.1000	56.4282
434.0000	56.3787
433.9000	56.3357
433.8000	56.2879
433.7000	56.2411
433.6000	56.1947
433.5000	56.1491
433.4000	56.1145
433.3000	56.0758
433.2000	56.0408
433.1000	56.0086
433.0000	55.983
432.9000	55.9557
432.8000	55.9286
432.7000	55.9023
432.6000	55.8807
432.5000	55.8643
432.4000	55.8427
432.3000	55.8173
432.2000	55.7972
432.1000	55.783
432.0000	55.7668
431.9000	55.7506
431.8000	55.7331
431.7000	55.718
431.6000	55.6997
431.5000	55.6772
431.4000	55.655
431.3000	55.6304
431.2000	55.6064
431.1000	55.5788
431.0000	55.5535
430.9000	55.5242
430.8000	55.4949
430.7000	55.4675
430.6000	55.4396
430.5000	55.4033
430.4000	55.3698
430.3000	55.3339
430.2000	55.2945
430.1000	55.2601
430.0000	55.2212
429.9000	55.1843
429.8000	55.1516
429.7000	55.1149
429.6000	55.0799
429.5000	55.0483
429.4000	55.0108
429.3000	54.9783
429.2000	54.9483
429.1000	54.9179
429.0000	54.885
428.9000	54.8572
428.8000	54.8332
428.7000	54.8095
428.6000	54.7879
428.5000	54.7674
428.4000	54.7489
428.3000	54.7351
428.2000	54.7172
428.1000	54.7031
428.0000	54.6912
427.9000	54.6783
427.8000	54.6721
427.7000	54.6611
427.6000	54.6506
427.5000	54.6424
427.4000	54.6358
427.3000	54.626
427.2000	54.615
427.1000	54.6022
427.0000	54.5926
426.9000	54.5736
426.8000	54.5603
426.7000	54.5435
426.6000	54.5268
426.5000	54.5095
426.4000	54.4887
426.3000	54.4678
426.2000	54.4429
426.1000	54.4201
426.0000	54.3939
425.9000	54.366
425.8000	54.3404
425.7000	54.3156
425.6000	54.286
425.5000	54.2591
425.4000	54.2288
425.3000	54.2035
425.2000	54.174
425.1000	54.1435
425.0000	54.1109
424.9000	54.0838
424.8000	54.057
424.7000	54.027
424.6000	53.9992
424.5000	53.9714
424.4000	53.9453
424.3000	53.9195
424.2000	53.8901
424.1000	53.8641
424.0000	53.8398
423.9000	53.8145
423.8000	53.7907
423.7000	53.7666
423.6000	53.7437
423.5000	53.7259
423.4000	53.7077
423.3000	53.6853
423.2000	53.6623
423.1000	53.641
423.0000	53.6196
422.9000	53.5966
422.8000	53.5716
422.7000	53.5474
422.6000	53.5223
422.5000	53.4979
422.4000	53.4675
422.3000	53.4426
422.2000	53.4106
422.1000	53.3796
422.0000	53.3428
421.9000	53.3068
421.8000	53.2715
421.7000	53.2375
421.6000	53.1979
421.5000	53.1583
421.4000	53.1179
421.3000	53.0731
421.2000	53.0346
421.1000	52.9914
421.0000	52.9459
420.9000	52.8962
420.8000	52.8491
420.7000	52.7958
420.6000	52.7466
420.5000	52.6974
420.4000	52.6518
420.3000	52.5998
420.2000	52.5448
420.1000	52.4943
420.0000	52.4335
419.9000	52.3808
419.8000	52.3354
419.7000	52.2806
419.6000	52.2348
419.5000	52.1839
419.4000	52.1313
419.3000	52.0851
419.2000	52.035
419.1000	51.9864
419.0000	51.9412
418.9000	51.8945
418.8000	51.8434
418.7000	51.7954
418.6000	51.7399
418.5000	51.6843
418.4000	51.626
418.3000	51.57
418.2000	51.507
418.1000	51.451
418.0000	51.3887
417.9000	51.3283
417.8000	51.2664
417.7000	51.1983
417.6000	51.1312
417.5000	51.0626
417.4000	50.9915
417.3000	50.918
417.2000	50.8483
417.1000	50.7743
417.0000	50.6998
416.9000	50.6265
416.8000	50.5547
416.7000	50.4778
416.6000	50.409
416.5000	50.3347
416.4000	50.2614
416.3000	50.1849
416.2000	50.1117
416.1000	50.0385
416.0000	49.9683
415.9000	49.8915
415.8000	49.8189
415.7000	49.7489
415.6000	49.6748
415.5000	49.6009
415.4000	49.5305
415.3000	49.4603
415.2000	49.3893
415.1000	49.3226
415.0000	49.2492
414.9000	49.1781
414.8000	49.1061
414.7000	49.0367
414.6000	48.9658
414.5000	48.8959
414.4000	48.8236
414.3000	48.7514
414.2000	48.6798
414.1000	48.608
414.0000	48.5364
413.9000	48.4644
413.8000	48.3885
413.7000	48.3141
413.6000	48.2386
413.5000	48.1576
413.4000	48.0826
413.3000	48.0042
413.2000	47.9272
413.1000	47.8497
413.0000	47.7698
412.9000	47.6919
412.8000	47.6095
412.7000	47.5343
412.6000	47.4487
412.5000	47.3643
412.4000	47.2832
412.3000	47.2044
412.2000	47.1262
412.1000	47.0472
412.0000	46.9705
411.9000	46.8972
411.8000	46.8204
411.7000	46.749
411.6000	46.6717
411.5000	46.5968
411.4000	46.5256
411.3000	46.4516
411.2000	46.3816
411.1000	46.3107
411.0000	46.2427
410.9000	46.175
410.8000	46.1039
410.7000	46.0346
410.6000	45.9665
410.5000	45.8996
410.4000	45.826
410.3000	45.7547
410.2000	45.6842
410.1000	45.6115
410.0000	45.5415
409.9000	45.4708
409.8000	45.3965
409.7000	45.325
409.6000	45.2545
409.5000	45.1807
409.4000	45.1117
409.3000	45.0438
409.2000	44.9732
409.1000	44.9008
409.0000	44.8286
408.9000	44.7528
408.8000	44.682
408.7000	44.6088
408.6000	44.5385
408.5000	44.4658
408.4000	44.3942
408.3000	44.322
408.2000	44.2521
408.1000	44.182
408.0000	44.1143
407.9000	44.0472
407.8000	43.9753
407.7000	43.9014
407.6000	43.8342
407.5000	43.7672
407.4000	43.6971
407.3000	43.6349
407.2000	43.5691
407.1000	43.5042
407.0000	43.4347
406.9000	43.3731
406.8000	43.3095
406.7000	43.2439
406.6000	43.1822
406.5000	43.1172
406.4000	43.0482
406.3000	42.9843
406.2000	42.9241
406.1000	42.8644
406.0000	42.7998
405.9000	42.7385
405.8000	42.6791
405.7000	42.6146
405.6000	42.552
405.5000	42.4924
405.4000	42.4318
405.3000	42.3697
405.2000	42.3063
405.1000	42.2481
405.0000	42.1852
404.9000	42.1279
404.8000	42.0715
404.7000	42.0103
404.6000	41.9503
404.5000	41.8887
404.4000	41.8287
404.3000	41.7693
404.2000	41.7059
404.1000	41.6486
404.0000	41.5897
403.9000	41.5291
403.8000	41.4689
403.7000	41.4059
403.6000	41.3488
403.5000	41.2863
403.4000	41.2258
403.3000	41.1634
403.2000	41.1029
403.1000	41.0418
403.0000	40.9811
402.9000	40.9204
402.8000	40.8624
402.7000	40.8
402.6000	40.7425
402.5000	40.6796
402.4000	40.6203
402.3000	40.557
402.2000	40.4973
402.1000	40.4382
402.0000	40.3737
401.9000	40.3146
401.8000	40.2548
401.7000	40.1935
401.6000	40.1289
401.5000	40.0673
401.4000	40.0021
401.3000	39.941
401.2000	39.8741
401.1000	39.8083
401.0000	39.7402
400.9000	39.6728
400.8000	39.6045
400.7000	39.5384
400.6000	39.4688
400.5000	39.4001
400.4000	39.3324
400.3000	39.2588
400.2000	39.1847
400.1000	39.1135
400.0000	39.0406
399.9000	38.9665
399.8000	38.8946
399.7000	38.8161
399.6000	38.7424
399.5000	38.6672
399.4000	38.5928
399.3000	38.5199
399.2000	38.444
399.1000	38.3681
399.0000	38.2947
398.9000	38.2162
398.8000	38.1389
398.7000	38.0641
398.6000	37.9891
398.5000	37.9094
398.4000	37.8346
398.3000	37.7561
398.2000	37.675
398.1000	37.5994
398.0000	37.5199
397.9000	37.444
397.8000	37.3674
397.7000	37.2856
397.6000	37.2044
397.5000	37.1225
397.4000	37.0373
397.3000	36.9568
397.2000	36.873
397.1000	36.7896
397.0000	36.7037
396.9000	36.6221
396.8000	36.5352
396.7000	36.4508
396.6000	36.3645
396.5000	36.2786
396.4000	36.1909
396.3000	36.1001
396.2000	36.0103
396.1000	35.9213
396.0000	35.8348
395.9000	35.7448
395.8000	35.6564
395.7000	35.5646
395.6000	35.4762
395.5000	35.3821
395.4000	35.2929
395.3000	35.1997
395.2000	35.1082
395.1000	35.0166
395.0000	34.9271
394.9000	34.8332
394.8000	34.741
394.7000	34.6455
394.6000	34.5525
394.5000	34.4564
394.4000	34.3591
394.3000	34.2654
394.2000	34.1723
394.1000	34.0765
394.0000	33.9807
393.9000	33.8856
393.8000	33.7878
393.7000	33.6916
393.6000	33.594
393.5000	33.4939
393.4000	33.3945
393.3000	33.2965
393.2000	33.1998
393.1000	33.1031
393.0000	33.0019
392.9000	32.9045
392.8000	32.807
392.7000	32.7054
392.6000	32.6052
392.5000	32.5101
392.4000	32.4091
392.3000	32.3106
392.2000	32.2109
392.1000	32.112
392.0000	32.0154
391.9000	31.9168
391.8000	31.8175
391.7000	31.7177
391.6000	31.6177
391.5000	31.5183
391.4000	31.4196
391.3000	31.3195
391.2000	31.2213
391.1000	31.1242
391.0000	31.025
390.9000	30.9233
390.8000	30.825
390.7000	30.7266
390.6000	30.6277
390.5000	30.5255
390.4000	30.4262
390.3000	30.3288
390.2000	30.2295
390.1000	30.1329
390.0000	30.0333
389.9000	29.9368
389.8000	29.8393
389.7000	29.7437
389.6000	29.6462
389.5000	29.5502
389.4000	29.4555
389.3000	29.3597
389.2000	29.2649
389.1000	29.1697
389.0000	29.0755
388.9000	28.9833
388.8000	28.8869
388.7000	28.792
388.6000	28.6978
388.5000	28.6011
388.4000	28.5074
388.3000	28.4131
388.2000	28.3228
388.1000	28.2304
388.0000	28.137
387.9000	28.043
387.8000	27.9497
387.7000	27.8593
387.6000	27.7676
387.5000	27.6762
387.4000	27.5861
387.3000	27.4957
387.2000	27.4061
387.1000	27.3146
387.0000	27.2249
386.9000	27.1374
386.8000	27.048
386.7000	26.959
386.6000	26.8676
386.5000	26.7776
386.4000	26.6899
386.3000	26.601
386.2000	26.5138
386.1000	26.4255
386.0000	26.336
385.9000	26.2483
385.8000	26.1595
385.7000	26.0712
385.6000	25.9843
385.5000	25.8976
385.4000	25.8115
385.3000	25.7246
385.2000	25.6383
385.1000	25.551
385.0000	25.4648
384.9000	25.3769
384.8000	25.2881
384.7000	25.2042
384.6000	25.1166
384.5000	25.0295
384.4000	24.9431
384.3000	24.8572
384.2000	24.7692
384.1000	24.6833
384.0000	24.5959
383.9000	24.5108
383.8000	24.4252
383.7000	24.3381
383.6000	24.2501
383.5000	24.163
383.4000	24.0771
383.3000	23.9916
383.2000	23.9055
383.1000	23.8189
383.0000	23.7312
382.9000	23.6433
382.8000	23.5574
382.7000	23.4693
382.6000	23.3847
382.5000	23.2982
382.4000	23.2112
382.3000	23.1217
382.2000	23.0348
382.1000	22.9476
382.0000	22.8597
381.9000	22.7725
381.8000	22.6842
381.7000	22.5964
381.6000	22.5089
381.5000	22.4181
381.4000	22.3288
381.3000	22.2386
381.2000	22.1504
381.1000	22.0619
381.0000	21.9704
380.9000	21.8794
380.8000	21.7896
380.7000	21.7013
380.6000	21.6081
380.5000	21.5172
380.4000	21.4271
380.3000	21.3362
380.2000	21.2416
380.1000	21.1492
380.0000	21.0541
379.9000	20.9614
379.8000	20.8701
379.7000	20.7773
379.6000	20.6831
379.5000	20.5893
379.4000	20.4972
379.3000	20.4037
379.2000	20.3106
379.1000	20.2137
379.0000	20.1202
378.9000	20.0224
378.8000	19.925
378.7000	19.8303
378.6000	19.7348
378.5000	19.6379
378.4000	19.5433
378.3000	19.4476
378.2000	19.3494
378.1000	19.2508
378.0000	19.1514
377.9000	19.0519
377.8000	18.9503
377.7000	18.8477
377.6000	18.7437
377.5000	18.6448
377.4000	18.5438
377.3000	18.4424
377.2000	18.3405
377.1000	18.236
377.0000	18.1344
376.9000	18.0305
376.8000	17.9266
376.7000	17.8216
376.6000	17.7179
376.5000	17.6138
376.4000	17.5087
376.3000	17.4022
376.2000	17.2961
376.1000	17.1889
376.0000	17.0837
375.9000	16.9728
375.8000	16.8616
375.7000	16.7515
375.6000	16.641
375.5000	16.5282
375.4000	16.4138
375.3000	16.3005
375.2000	16.1843
375.1000	16.0687
375.0000	15.9498
374.9000	15.8312
374.8000	15.7101
374.7000	15.5896
374.6000	15.4671
374.5000	15.3453
374.4000	15.2201
374.3000	15.0946
374.2000	14.9696
374.1000	14.8424
374.0000	14.7117
373.9000	14.5818
373.8000	14.4514
373.7000	14.3187
373.6000	14.185
373.5000	14.0487
373.4000	13.9108
373.3000	13.7716
373.2000	13.6316
373.1000	13.4894
373.0000	13.3478
372.9000	13.204
372.8000	13.0592
372.7000	12.913
372.6000	12.7638
372.5000	12.6154
372.4000	12.4664
372.3000	12.3144
372.2000	12.161
372.1000	12.005
372.0000	11.8488
371.9000	11.6906
371.8000	11.5315
371.7000	11.3733
371.6000	11.2131
371.5000	11.0518
371.4000	10.8872
371.3000	10.7209
371.2000	10.554
371.1000	10.3865
371.0000	10.2172
370.9000	10.0463
370.8000	9.8756
370.7000	9.70424
370.6000	9.53061
370.5000	9.35802
370.4000	9.18284
370.3000	9.00774
370.2000	8.83315
370.1000	8.65576
370.0000	7.88719
369.9000	7.712
369.8000	7.53618
369.7000	7.3605
369.6000	7.1853
369.5000	7.01071
369.4000	6.83457
369.3000	6.65944
369.2000	6.48496
369.1000	6.31067
369.0000	6.13842
368.9000	5.96529
368.8000	5.79585
368.7000	5.62736
368.6000	5.45718
368.5000	5.29077
368.4000	5.12455
368.3000	4.96179
368.2000	4.80015
368.1000	4.64059
368.0000	4.48237
367.9000	4.32763
367.8000	4.17555
367.7000	4.02604
367.6000	3.87804
367.5000	3.73226
367.4000	3.58862
367.3000	3.44917
367.2000	3.31134
367.1000	3.17627
367.0000	3.04475
366.9000	2.91635
366.8000	2.79066
366.7000	2.66753
366.6000	2.54915
366.5000	2.43312
366.4000	2.31974
366.3000	2.20911
366.2000	2.10173
366.1000	1.9972
366.0000	1.89603
365.9000	1.79847
365.8000	1.7047
365.7000	1.61362
365.6000	1.52578
365.5000	1.44099
365.4000	1.36013
365.3000	1.28202
365.2000	1.20596
365.1000	1.1335
365.0000	1.06307
364.9000	0.9961
364.8000	0.932121
364.7000	0.870545
364.6000	0.812637
364.5000	0.757243
364.4000	0.704564
364.3000	0.654513
364.2000	0.606553
364.1000	0.561096
364.0000	0.518222
363.9000	0.477744
363.8000	0.439123
363.7000	0.403098
363.6000	0.369498
363.5000	0.337905
363.4000	0.308376
363.3000	0.280636
363.2000	0.254795
363.1000	0.231101
363.0000	0.209028
362.9000	0.188271
362.8000	0.169253
362.7000	0.151865
362.6000	0.136043
362.5000	0.121408
362.4000	0.107875
362.3000	0.095782
362.2000	0.0848568
362.1000	0.0749592
362.0000	0.0657691
361.9000	0.0577638
361.8000	0.0504961
361.7000	0.0438461
361.6000	0.0381452
361.5000	0.0331039
361.4000	0.0285081
361.3000	0.0244805
361.2000	0.0209968
361.1000	0.0179284
361.0000	0.0153001
360.9000	0.0130419
360.8000	0.0111309
360.7000	0.00939278
360.6000	0.00795227
360.5000	0.00668302
360.4000	0.00566179
360.3000	0.00476461
360.2000	0.00411499
360.1000	0.0035138
360.0000	0.00302675
359.9000	0.00254101
359.8000	0.00224913
359.7000	0.00195751
359.6000	0.00178744
359.5000	0.00161748
359.4000	0.00147169
359.3000	0.00125351
359.2000	0.0011319
359.1000	0.00113179
359.0000	0.00103537
358.9000	0.000986971
358.8000	0.000938395
358.7000	0.000889637
358.6000	0.000792235
358.5000	0.000767985
358.4000	0.0007196
358.3000	0.000719932
358.2000	0.000768665
358.1000	0.000792873
358.0000	0.000720015
357.9000	0.000672079
357.8000	0.000624001
357.7000	0.000672269
357.6000	0.000696233
357.5000	0.000574968
357.4000	0.000574217
357.3000	0.000525284
357.2000	0.000525636
357.1000	0.000574775
357.0000	0.000550049
356.9000	0.000549487
356.8000	0.000501024
356.7000	0.000428259
356.6000	0.000281882
356.5000	0.000281656
356.4000	0.000305982
356.3000	0.000257331
356.2000	0.000281333
356.1000	0.000281495
356.0000	0.000257233
355.9000	0.000305686
355.8000	0.000354908
355.7000	0.00037941
355.6000	0.000306561
355.5000	0.000281809
355.4000	0.000282475
355.3000	0.00028227
355.2000	0.000281834
355.1000	0.00037932
355.0000	0.000404125
354.9000	0.000355557
354.8000	0.000354716
354.7000	0.000427643
354.6000	0.000379536
354.5000	0.000306526
354.4000	0.000233675
354.3000	0.000209009
354.2000	0.000183979
354.1000	0.000184141
354.0000	0.000257298
353.9000	0.000184117
353.8000	0.000110872
353.7000	6.22561E-005
353.6000	-1.02322E-005
353.5000	-8.34846E-005
353.4000	-8.38792E-005
353.3000	-5.93726E-005
353.2000	-0.000107358
353.1000	-0.000155871
353.0000	-0.000180683
352.9000	-0.000156507
352.8000	-0.000157011
352.7000	-0.00015738
352.6000	-0.000157207
352.5000	-0.000230177
352.4000	-0.000254087
352.3000	-0.0001805
352.2000	-0.000156436
352.1000	-0.000205409
352.0000	-0.000132201
351.9000	-8.31514E-005
351.8000	-0.000131407
351.7000	-0.000204781
351.6000	-0.000180524
351.5000	-0.000132574
351.4000	-0.000132618
351.3000	-0.0001323
351.2000	-3.40653E-005
351.1000	-5.80949E-005
351.0000	-3.39301E-005
350.9000	3.91482E-005
350.8000	6.31133E-005
350.7000	1.42692E-005
350.6000	3.91609E-005
350.5000	0.00011228
350.4000	0.000111939
350.3000	6.32635E-005
350.2000	3.88853E-005
350.1000	6.30576E-005
350.0000	0.000112152
349.9000	1.47857E-005
349.8000	1.50675E-005
349.7000	-3.37415E-005
349.6000	-8.27334E-005
349.5000	-0.000106983
349.4000	-0.000228983
349.3000	-0.000229244
349.2000	-0.000229291
349.1000	-0.000278881
349.0000	-0.000230154
348.9000	-0.000205392
348.8000	-0.00022915
348.7000	-0.000277549
348.6000	-0.000228914
348.5000	-0.000228912
348.4000	-0.000253565
348.3000	-0.000229099
348.2000	-0.000228834
348.1000	-0.000131144
348.0000	-0.000106451
347.9000	-8.56415E-006
347.8000	6.48504E-005
347.7000	4.0761E-005
347.6000	6.5281E-005
347.5000	0.000115422
347.4000	9.07914E-005
347.3000	6.66193E-005
347.2000	0.000114183
347.1000	0.000211439
347.0000	0.000211681
346.9000	0.00023687
346.8000	0.000163775
346.7000	0.000139358
346.6000	0.000138946
346.5000	8.98293E-005
346.4000	4.09486E-005
346.3000	-3.23677E-005
346.2000	1.67534E-005
346.1000	-7.92051E-006
346.0000	-5.72644E-005
345.9000	-8.21008E-005
345.8000	-3.26843E-005
345.7000	-8.17104E-005
345.6000	-0.000129907
345.5000	-0.000178721
345.4000	-0.000178904
345.3000	-0.000179642
345.2000	-0.000106035
345.1000	-5.7237E-005
345.0000	-8.16041E-005
344.9000	-0.000130367
344.8000	-0.000106163
344.7000	-5.72849E-005
344.6000	-8.15604E-005
344.5000	-5.71397E-005
344.4000	-5.66065E-005
344.3000	-3.21725E-005
344.2000	-8.12384E-005
344.1000	-7.81426E-006
344.0000	-7.63754E-006
343.9000	1.6444E-005
343.8000	-8.37763E-006
343.7000	-8.3792E-006
343.6000	-8.80151E-006
343.5000	-8.71283E-006
343.4000	1.58741E-005
343.3000	0.000113563
343.2000	0.000162648
343.1000	0.000138275
343.0000	0.000162686
342.9000	0.000162582
342.8000	0.000210876
342.7000	0.000259535
342.6000	0.000235776
342.5000	0.000187195
342.4000	0.000186961
342.3000	0.000113425
342.2000	8.89516E-005
342.1000	0.000137645
342.0000	0.000162315
341.9000	0.000187269
341.8000	0.000187068
341.7000	0.000162419
341.6000	8.8798E-005
341.5000	6.44389E-005
341.4000	3.99083E-005
341.3000	-8.28185E-006
341.2000	-3.2585E-005
341.1000	-0.00013053
341.0000	-8.24611E-005
340.9000	-5.79175E-005
340.8000	-9.01486E-006
340.7000	1.55943E-005
340.6000	8.95798E-005
340.5000	4.06779E-005
340.4000	1.62211E-005
340.3000	-3.29559E-005
340.2000	-3.29045E-005
340.1000	-8.40742E-006
340.0000	0.00594077
339.9000	0.00593955
339.8000	0.00581507
339.7000	0.00576592
339.6000	0.00576482
339.5000	0.00568932
339.4000	0.0056649
339.3000	0.00563935
339.2000	0.005615
339.1000	0.00568703
339.0000	0.00573608
338.9000	0.00561384
338.8000	0.00556406
338.7000	0.00553734
338.6000	0.0056338
338.5000	0.00565748
338.4000	0.00558454
338.3000	0.0055371
338.2000	0.0055863
338.1000	0.00568543
338.0000	0.00563719
337.9000	0.00561216
337.8000	0.00561179
337.7000	0.00553799
337.6000	0.00551063
337.5000	0.00543646
337.4000	0.0054101
337.3000	0.00538348
337.2000	0.00538331
337.1000	0.00538465
337.0000	0.00536006
336.9000	0.00535913
336.8000	0.00538328
336.7000	0.00533363
336.6000	0.0053344
336.5000	0.00530921
336.4000	0.00530721
336.3000	0.00530809
336.2000	0.00530793
336.1000	0.00535734
336.0000	0.0053826
335.9000	0.00545426
335.8000	0.00545295
335.7000	0.00545421
335.6000	0.00542829
335.5000	0.00540158
335.4000	0.00537783
335.3000	0.00535334
335.2000	0.0052797
335.1000	0.00532925
335.0000	0.00532722
334.9000	0.00522764
334.8000	0.00520253
334.7000	0.0051772
334.6000	0.00522445
334.5000	0.0052232
334.4000	0.0051985
334.3000	0.00522485
334.2000	0.00520111
334.1000	0.00515054
334.0000	0.00510119
333.9000	0.00505324
333.8000	0.0050767
333.7000	0.00507569
333.6000	0.00500081
333.5000	0.0049508
333.4000	0.00495105
333.3000	0.00497497
333.2000	0.00497615
333.1000	0.00495295
333.0000	0.00485478
332.9000	0.00480357
332.8000	0.00485113
332.7000	0.00475231
332.6000	0.00472759
332.5000	0.00480178
332.4000	0.00484915
332.3000	0.00489668
332.2000	0.00484669
332.1000	0.0047481
332.0000	0.00482107
331.9000	0.00484392
331.8000	0.00489146
331.7000	0.00486736
331.6000	0.00489089
331.5000	0.00484169
331.4000	0.00484161
331.3000	0.00486757
331.2000	0.00484361
331.1000	0.0048672
331.0000	0.00486752
330.9000	0.00491586
330.8000	0.00489182
330.7000	0.00484287
330.6000	0.00489135
330.5000	0.00491611
330.4000	0.00491837
330.3000	0.004942
330.2000	0.00486786
330.1000	0.00481661
330.0000	0.00483952
329.9000	0.00488577
329.8000	0.0048368
329.7000	0.00478804
329.6000	0.00471429
329.5000	0.00471425
329.4000	0.00471282
329.3000	0.00466182
329.2000	0.00461351
329.1000	0.0046369
329.0000	0.00466311
328.9000	0.00471175
328.8000	0.00473287
328.7000	0.00468451
328.6000	0.00471083
328.5000	0.00476114
328.4000	0.00476085
328.3000	0.00478608
328.2000	0.0048589
328.1000	0.00490841
328.0000	0.00493261
327.9000	0.00485776
327.8000	0.00480872
327.7000	0.00478574
327.6000	0.00485668
327.5000	0.0048083
327.4000	0.00470824
327.3000	0.00470718
327.2000	0.00463395
327.1000	0.00458531
327.0000	0.00453541
326.9000	0.00448648
326.8000	0.00443732
326.7000	0.00433887
326.6000	0.0043399
326.5000	0.00428958
326.4000	0.00421492
326.3000	0.00433775
326.2000	0.00431318
326.1000	0.0042636
326.0000	0.0042646
325.9000	0.00428767
325.8000	0.00435979
325.7000	0.00433496
325.6000	0.00435893
325.5000	0.00438373
325.4000	0.00443063
325.3000	0.00445392
325.2000	0.00447786
325.1000	0.00462376
325.0000	0.00462068
324.9000	0.00459525
324.8000	0.00464512
324.7000	0.00452283
324.6000	0.0045457
324.5000	0.00449604
324.4000	0.00442161
324.3000	0.00442184
324.2000	0.00437344
324.1000	0.00432443
324.0000	0.00427732
323.9000	0.0042513
323.8000	0.00420311
323.7000	0.00417671
323.6000	0.00410362
323.5000	0.00405637
323.4000	0.00396038
323.3000	0.00388639
323.2000	0.00388376
323.1000	0.00395655
323.0000	0.00385985
322.9000	0.00393439
322.8000	0.00390974
322.7000	0.00390965
322.6000	0.00390846
322.5000	0.00388225
322.4000	0.00388088
322.3000	0.00393057
322.2000	0.00385847
322.1000	0.00388362
322.0000	0.00390805
321.9000	0.00385683
321.8000	0.00385472
321.7000	0.0038561
321.6000	0.00385739
321.5000	0.0038316
321.4000	0.00390424
321.3000	0.00387807
321.2000	0.00387945
321.1000	0.00385496
321.0000	0.00383147
320.9000	0.00380809
320.8000	0.00380697
320.7000	0.00373314
320.6000	0.00373161
320.5000	0.00370798
320.4000	0.0037082
320.3000	0.00368317
320.2000	0.00370659
320.1000	0.00373058
320.0000	0.00365912
319.9000	0.00358739
319.8000	0.00363471
319.7000	0.00356336
319.6000	0.00358819
319.5000	0.00351596
319.4000	0.00353941
319.3000	0.00361106
319.2000	0.00365947
319.1000	0.00368382
319.0000	0.00373325
318.9000	0.00375782
318.8000	0.00370767
318.7000	0.00370736
318.6000	0.00365982
318.5000	0.0037086
318.4000	0.00375606
318.3000	0.00378128
318.2000	0.00370791
318.1000	0.00375779
318.0000	0.00373119
317.9000	0.00380575
317.8000	0.00373234
317.7000	0.00368319
317.6000	0.00365882
317.5000	0.00361038
317.4000	0.00363399
317.3000	0.00353892
317.2000	0.00356251
317.1000	0.00353867
317.0000	0.00353924
316.9000	0.00349148
316.8000	0.00346829
316.7000	0.00342025
316.6000	0.00344384
316.5000	0.00346745
316.4000	0.00346761
316.3000	0.00339617
316.2000	0.00346798
316.1000	0.00346853
316.0000	0.00339721
315.9000	0.00337321
315.8000	0.00330128
315.7000	0.00330088
315.6000	0.00330189
315.5000	0.00320666
315.4000	0.00325374
315.3000	0.00322914
315.2000	0.00322846
315.1000	0.00327665
315.0000	0.00325339
314.9000	0.00320511
314.8000	0.0032046
314.7000	0.00322856
314.6000	0.00315714
314.5000	0.00306119
314.4000	0.00308465
314.3000	0.00310824
314.2000	0.00315574
314.1000	0.00315578
314.0000	0.00310708
313.9000	0.00315451
313.8000	0.00313054
313.7000	0.00317828
313.6000	0.00313005
313.5000	0.00303366
313.4000	0.00305711
313.3000	0.00308137
313.2000	0.00303397
313.1000	0.00305698
313.0000	0.00310373
312.9000	0.00324752
312.8000	0.00322338
312.7000	0.00319999
312.6000	0.00319975
312.5000	0.00324682
312.4000	0.00331883
312.3000	0.00339026
312.2000	0.00341377
312.1000	0.00338999
312.0000	0.00343748
311.9000	0.00346119
311.8000	0.00334228
311.7000	0.00334178
311.6000	0.0033177
311.5000	0.00331782
311.4000	0.00329343
311.3000	0.00324465
311.2000	0.00322061
311.1000	0.00319665
311.0000	0.0031728
310.9000	0.00314907
310.8000	0.00312472
310.7000	0.0030527
310.6000	0.0029574
310.5000	0.00293352
310.4000	0.00288608
310.3000	0.00295767
310.2000	0.00302822
310.1000	0.00298032
310.0000	0.00302781
309.9000	0.00300317
309.8000	0.00293256
309.7000	0.00290855
309.6000	0.00295608
309.5000	0.00302695
309.4000	0.00295488
309.3000	0.00295472
309.2000	0.00283531
309.1000	0.00290677
309.0000	0.00297799
308.9000	0.00300158
308.8000	0.00304882
308.7000	0.00300044
308.6000	0.00297674
308.5000	0.0030719
308.4000	0.00304764
308.3000	0.00297654
308.2000	0.00302348
308.1000	0.00299933
308.0000	0.00297556
307.9000	0.00295157
307.8000	0.002999
307.7000	0.00302226
307.6000	0.00304567
307.5000	0.00302177
307.4000	0.00299733
307.3000	0.00290161
307.2000	0.00287751
307.1000	0.00290154
307.0000	0.00290095
306.9000	0.00282896
306.8000	0.00280511
306.7000	0.00280498
306.6000	0.00280511
306.5000	0.00280488
306.4000	0.00278006
306.3000	0.00280346
306.2000	0.00278024
306.1000	0.00270882
306.0000	0.00266092
305.9000	0.00261266
305.8000	0.00254143
305.7000	0.00258845
305.6000	0.00261187
305.5000	0.00258799
305.4000	0.00256428
305.3000	0.00251693
305.2000	0.00254022
305.1000	0.00261128
305.0000	0.00253925
304.9000	0.0026104
304.8000	0.00261084
304.7000	0.0025397
304.6000	0.00249136
304.5000	0.00253818
304.4000	0.002609
304.3000	0.00263293
304.2000	0.00268062
304.1000	0.00265652
304.0000	0.00258525
303.9000	0.00253714
303.8000	0.00256053
303.7000	0.00253661
303.6000	0.00255992
303.5000	0.00248836
303.4000	0.00251194
303.3000	0.00241719
303.2000	0.0024405
303.1000	0.00246395
303.0000	0.00248767
302.9000	0.0024402
302.8000	0.00248784
302.7000	0.0024871
302.6000	0.00251025
302.5000	0.00260564
302.4000	0.00262959
302.3000	0.00260603
302.2000	0.00258139
302.1000	0.00265214
302.0000	0.00269988
301.9000	0.00274753
301.8000	0.00272368
301.7000	0.00277003
301.6000	0.00274618
301.5000	0.00274575
301.4000	0.00276908
301.3000	0.00274559
301.2000	0.00269808
301.1000	0.00272212
301.0000	0.00269808
300.9000	0.00260257
300.8000	0.00257865
300.7000	0.00269676
300.6000	0.00272089
300.5000	0.00272093
300.4000	0.00262574
300.3000	0.00257773
300.2000	0.00260156
300.1000	0.00255487
300.0000	0.00257837
299.9000	0.00255444
299.8000	0.00253069
299.7000	0.0025544
299.6000	0.00255418
299.5000	0.0024356
299.4000	0.00241193
299.3000	0.00241227
299.2000	0.00238837
299.1000	0.00226945
299.0000	0.00224586
298.9000	0.00222236
298.8000	0.00222225
298.7000	0.00222186
298.6000	0.00219765
298.5000	0.00222068
298.4000	0.0021491
298.3000	0.00219617
298.2000	0.00214876
298.1000	0.00221911
298.0000	0.00219536
297.9000	0.00224272
297.8000	0.00221868
297.7000	0.00221795
297.6000	0.00224164
297.5000	0.0022186
297.4000	0.00221821
297.3000	0.0021463
297.2000	0.00212267
297.1000	0.0021462
297.0000	0.00214639
296.9000	0.00209944
296.8000	0.00212324
296.7000	0.00202842
296.6000	0.00205242
296.5000	0.00195787
296.4000	0.00195751
296.3000	0.00193329
296.2000	0.00195671
296.1000	0.00198122
296.0000	0.00188574
295.9000	0.00188496
295.8000	0.00190849
295.7000	0.00193246
295.6000	0.00190906
295.5000	0.00190944
295.4000	0.00193233
295.3000	0.00188436
295.2000	0.00190795
295.1000	0.00188466
295.0000	0.00193152
294.9000	0.00197931
294.8000	0.00188475
294.7000	0.00186151
294.6000	0.0018376
294.5000	0.00174207
294.4000	0.00178978
294.3000	0.00183746
294.2000	0.00176708
294.1000	0.00171978
294.0000	0.00167174
293.9000	0.00160044
293.8000	0.00160052
293.7000	0.00164803
293.6000	0.0016004
293.5000	0.00167131
293.4000	0.0015768
293.3000	0.00145778
293.2000	0.00150479
293.1000	0.00150466
293.0000	0.00145768
292.9000	0.00152867
292.8000	0.00155175
292.7000	0.001528
292.6000	0.00152778
292.5000	0.00150382
292.4000	0.00155106
292.3000	0.0016222
292.2000	0.00162243
292.1000	0.00159819
292.0000	0.00157472
291.9000	0.00152763
291.8000	0.00157465
291.7000	0.00159841
291.6000	0.00155144
291.5000	0.00152745
291.4000	0.00159845
291.3000	0.00152725
291.2000	0.00148023
291.1000	0.00140976
291.0000	0.00138594
290.9000	0.0014096
290.8000	0.00138635
290.7000	0.00126809
290.6000	0.00119704
290.5000	0.00119728
290.4000	0.00124488
290.3000	0.00122073
290.2000	0.00114962
290.1000	0.00114914
290.0000	0.00119616
289.9000	0.00119649
289.8000	0.0011253
289.7000	0.00112559
289.6000	0.00117311
289.5000	0.00124374
289.4000	0.0012908
289.3000	0.00131473
289.2000	0.00131439
289.1000	0.00133777
289.0000	0.00131389
288.9000	0.00133741
288.8000	0.00126627
288.7000	0.00126703
288.6000	0.0012909
288.5000	0.00131484
288.4000	0.00131523
288.3000	0.00131525
288.2000	0.00133886
288.1000	0.00133897
288.0000	0.0013155
287.9000	0.00124419
287.8000	0.00119651
287.7000	0.00119608
287.6000	0.00122025
287.5000	0.0012208
287.4000	0.00124464
287.3000	0.0012214
287.2000	0.0012687
287.1000	0.00124436
287.0000	0.00126747
286.9000	0.00121999
286.8000	0.00117288
286.7000	0.00117272
286.6000	0.00114894
286.5000	0.0011255
286.4000	0.00112479
286.3000	0.00117187
286.2000	0.00117184
286.1000	0.00117206
286.0000	0.00114834
285.9000	0.00110051
285.8000	0.00112386
285.7000	0.00107638
285.6000	0.00107581
285.5000	0.00107595
285.4000	0.00100585
285.3000	0.00102963
285.2000	0.00105327
285.1000	0.00105316
285.0000	0.00100576
284.9000	0.00100504
284.8000	0.000981763
284.7000	0.000934617
284.6000	0.000911611
284.5000	0.000864733
284.4000	0.000817161
284.3000	0.000816721
284.2000	0.000769317
284.1000	0.000769161
284.0000	0.000769807
283.9000	0.000816734
283.8000	0.0008639
283.7000	0.000887571
283.6000	0.000863598
283.5000	0.000886843
283.4000	0.000958592
283.3000	0.000935248
283.2000	0.000958885
283.1000	0.000982212
283.0000	0.00100544
282.9000	0.00100541
282.8000	0.0010521
282.7000	0.00107594
282.6000	0.00109998
282.5000	0.00112368
282.4000	0.00109956
282.3000	0.00105249
282.2000	0.00109995
282.1000	0.00105297
282.0000	0.00107655
281.9000	0.00100574
281.8000	0.000981376
281.7000	0.00102864
281.6000	0.000957874
281.5000	0.000958303
281.4000	0.000981991
281.3000	0.00098169
281.2000	0.000982337
281.1000	0.00100586
281.0000	0.000935149
280.9000	0.000935157
280.8000	0.000887835
280.7000	0.000887947
280.6000	0.000840124
280.5000	0.000887331
280.4000	0.000863578
280.3000	0.000911001
280.2000	0.000935123
280.1000	0.000935087
280.0000	0.00100585
279.9000	0.00102949
279.8000	0.00102961
279.7000	0.00105339
279.6000	0.00100567
279.5000	0.000958654
279.4000	0.00102905
279.3000	0.00107617
279.2000	0.00112357
279.1000	0.001147
279.0000	0.00107608
278.9000	0.00100477
278.8000	0.0010042
278.7000	0.00105187
278.6000	0.00105171
278.5000	0.00105146
278.4000	0.00100421
278.3000	0.000956585
278.2000	0.000956288
278.1000	0.000908833
278.0000	0.000932658
277.9000	0.00100347
277.8000	0.00095663
277.7000	0.000861955
277.6000	0.000885339
277.5000	0.000861466
277.4000	0.000955795
277.3000	0.000955888
277.2000	0.00095683
277.1000	0.00086214
277.0000	0.00081462
276.9000	0.000767264
276.8000	0.000767102
276.7000	0.000767801
276.6000	0.000768037
276.5000	0.000791692
276.4000	0.000767754
276.3000	0.000743851
276.2000	0.000743475
276.1000	0.000790991
276.0000	0.000767913
275.9000	0.000791806
275.8000	0.000744292
275.7000	0.000767959
275.6000	0.000767515
275.5000	0.000814911
275.4000	0.000790824
275.3000	0.000814878
275.2000	0.0008623
275.1000	0.000885415
275.0000	0.000908466
274.9000	0.000955572
274.8000	0.00097973
274.7000	0.000909165
274.6000	0.000955949
274.5000	0.000908704
274.4000	0.00086142
274.3000	0.000814106
274.2000	0.000766815
274.1000	0.000766593
274.0000	0.000790376
273.9000	0.000812995
273.8000	0.000883823
273.7000	0.00086021
273.6000	0.000765727
273.5000	0.000718394
273.4000	0.000647294
273.3000	0.000623025
273.2000	0.000646672
273.1000	0.000717506
273.0000	0.000717344
272.9000	0.000764374
272.8000	0.000787765
272.7000	0.000811238
272.6000	0.000835081
272.5000	0.000811728
272.4000	0.000764496
272.3000	0.000694352
272.2000	0.000647587
272.1000	0.000694669
272.0000	0.000764826
271.9000	0.000811813
271.8000	0.000765432
271.7000	0.000718915
271.6000	0.00074173
271.5000	0.000741665
271.4000	0.000718368
271.3000	0.000671358
271.2000	0.000694736
271.1000	0.000764924
271.0000	0.000787964
270.9000	0.00081198
270.8000	0.000812078
270.7000	0.000835164
270.6000	0.000881778
270.5000	0.000905144
270.4000	0.000905545
270.3000	0.000882475
270.2000	0.000952612
270.1000	0.000975468
270.0000	0.00092884
269.9000	0.000882
269.8000	0.000858974
269.7000	0.000858559
269.6000	0.000835103
269.5000	0.000836024
269.4000	0.00081328
269.3000	0.000859668
269.2000	0.000883144
269.1000	0.000954138
269.0000	0.000931092
268.9000	0.000836618
268.8000	0.000789582
268.7000	0.000789194
268.6000	0.000742662
268.5000	0.000742872
268.4000	0.00074311
268.3000	0.00081363
268.2000	0.000836745
268.1000	0.000813484
268.0000	0.00083698
267.9000	0.000742648
267.8000	0.000766091
267.7000	0.000742855
267.6000	0.000719222
267.5000	0.000624774
267.4000	0.000624352
267.3000	0.000695375
267.2000	0.000719364
267.1000	0.00069615
267.0000	0.000695752
266.9000	0.000718688
266.8000	0.000694166
266.7000	0.000670628
266.6000	0.000647558
266.5000	0.000647768
266.4000	0.000624257
266.3000	0.000647237
266.2000	0.000646787
266.1000	0.000599307
266.0000	0.000623032
265.9000	0.000599761
265.8000	0.000576636
265.7000	0.000576571
265.6000	0.000575882
265.5000	0.000622827
265.4000	0.00066968
265.3000	0.00062384
265.2000	0.000624667
265.1000	0.000577
265.0000	0.000599989
264.9000	0.000623203
264.8000	0.000576093
264.7000	0.000576387
264.6000	0.000553337
264.5000	0.000600741
264.4000	0.00057706
264.3000	0.000577211
264.2000	0.000600589
264.1000	0.000576574
264.0000	0.00055313
263.9000	0.000529571
263.8000	0.00050613
263.7000	0.000529044
263.6000	0.000528689
263.5000	0.000529061
263.4000	0.000529866
263.3000	0.00053012
263.2000	0.00053004
263.1000	0.000506557
263.0000	0.000506424
262.9000	0.000435377
262.8000	0.000482488
262.7000	0.000553529
262.6000	0.000483293
262.5000	0.000460168
262.4000	0.000435999
262.3000	0.000482597
262.2000	0.000459715
262.1000	0.000483833
262.0000	0.000507374
261.9000	0.000531083
261.8000	0.000530578
261.7000	0.000529878
261.6000	0.000600285
261.5000	0.000647456
261.4000	0.000647566
261.3000	0.000671523
261.2000	0.000647763
261.1000	0.000599873
261.0000	0.000646659
260.9000	0.00069389
260.8000	0.000718612
260.7000	0.000648437
260.6000	0.000671348
260.5000	0.000671015
260.4000	0.000717908
260.3000	0.000717917
260.2000	0.000765534
260.1000	0.000813245
260.0000	0.000766437
259.9000	0.000766479
259.8000	0.000790228
259.7000	0.000789623
259.6000	0.000860102
259.5000	0.000907743
259.4000	0.000908261
259.3000	0.000861102
259.2000	0.00086052
259.1000	0.00093087
259.0000	0.000931231
258.9000	0.000954811
258.8000	0.000931681
258.7000	0.000978685
258.6000	0.000955074
258.5000	0.000955102
258.4000	0.000954934
258.3000	0.000907473
258.2000	0.000954749
258.1000	0.00095525
258.0000	0.000814205
257.9000	0.000742771
257.8000	0.000742047
257.7000	0.000788819
257.6000	0.00081253
257.5000	0.000766023
257.4000	0.000789707
257.3000	0.0007188
257.2000	0.000671786
257.1000	0.00057737
257.0000	0.000529617
256.9000	0.000505607
256.8000	0.000529189
256.7000	0.000577031
256.6000	0.000553128
256.5000	0.000576456
256.4000	0.000647219
256.3000	0.000718318
256.2000	0.000695088
256.1000	0.000601369
256.0000	0.000577683
255.9000	0.000554014
255.8000	0.000530045
255.7000	0.000577348
255.6000	0.000600571
255.5000	0.000647842
255.4000	0.000648108
255.3000	0.000648216
255.2000	0.000696212
255.1000	0.000648787
255.0000	0.000577701
254.9000	0.000578005
254.8000	0.000530336
254.7000	0.000483308
254.6000	0.000483402
254.5000	0.000506747
254.4000	0.000577639
254.3000	0.000601468
254.2000	0.000601667
254.1000	0.000531025
254.0000	0.000460834
253.9000	0.000461148
253.8000	0.000508203
253.7000	0.000461074
253.6000	0.000437341
253.5000	0.000437203
253.4000	0.000461299
253.3000	0.000461458
253.2000	0.000461963
253.1000	0.000485757
253.0000	0.000532866
252.9000	0.00058003
252.8000	0.000556365
252.7000	0.000556348
252.6000	0.000580123
252.5000	0.000674641
252.4000	0.000745366
252.3000	0.00069757
252.2000	0.000698025
252.1000	0.000745505
252.0000	0.000721539
251.9000	0.000769384
251.8000	0.000769021
251.7000	0.000792402
251.6000	0.000815801
251.5000	0.000815831
251.4000	0.000815526
251.3000	0.000744527
251.2000	0.000721101
251.1000	0.000649964
251.0000	0.000673784
250.9000	0.000602906
250.8000	0.000602609
250.7000	0.000696899
250.6000	0.000673145
250.5000	0.000673202
250.4000	0.000673537
250.3000	0.000602558
250.2000	0.000673184
250.1000	0.000672989
250.0000	0.000697161
