TITLE	p-GaN_NP_0
DATA TYPE	ULTRAVIOLET SPECTRUM
ORIGIN	JASCO
OWNER	
DATE	21/05/03
TIME	16:27:08
SPECTROMETER/DATA SYSTEM	
RESOLUTION	
DELTAX	-0.1
XUNITS	NANOMETERS
YUNITS	TRANSMITTANCE
FIRSTX	  850.0000
LASTX	  250.0000
NPOINTS	    6001
FIRSTY	    75.27925
MAXY	    79.98762
MINY	     0.00049
XYDATA
850.0000	75.2793
849.9000	75.167
849.8000	75.0611
849.7000	74.939
849.6000	74.8297
849.5000	74.7184
849.4000	74.5999
849.3000	74.4852
849.2000	74.3767
849.1000	74.2626
849.0000	74.1507
848.9000	74.0399
848.8000	73.9151
848.7000	73.797
848.6000	73.6816
848.5000	73.5614
848.4000	73.4444
848.3000	73.3294
848.2000	73.2246
848.1000	73.1163
848.0000	73.0109
847.9000	72.9107
847.8000	72.8107
847.7000	72.7066
847.6000	72.5951
847.5000	72.5007
847.4000	72.3952
847.3000	72.3061
847.2000	72.2114
847.1000	72.1285
847.0000	72.0333
846.9000	71.9433
846.8000	71.8624
846.7000	71.7768
846.6000	71.6857
846.5000	71.5974
846.4000	71.5056
846.3000	71.4105
846.2000	71.3262
846.1000	71.2424
846.0000	71.1619
845.9000	71.0705
845.8000	70.9853
845.7000	70.9027
845.6000	70.8253
845.5000	70.7526
845.4000	70.6807
845.3000	70.6063
845.2000	70.5289
845.1000	70.4625
845.0000	70.3889
844.9000	70.3348
844.8000	70.2711
844.7000	70.2237
844.6000	70.1561
844.5000	70.1044
844.4000	70.0527
844.3000	70.0146
844.2000	69.9739
844.1000	69.9336
844.0000	69.8878
843.9000	69.8423
843.8000	69.803
843.7000	69.7745
843.6000	69.7499
843.5000	69.718
843.4000	69.6931
843.3000	69.6596
843.2000	69.6414
843.1000	69.6159
843.0000	69.606
842.9000	69.589
842.8000	69.5822
842.7000	69.5622
842.6000	69.5574
842.5000	69.546
842.4000	69.5461
842.3000	69.5436
842.2000	69.5488
842.1000	69.5533
842.0000	69.5595
841.9000	69.5689
841.8000	69.583
841.7000	69.604
841.6000	69.6197
841.5000	69.6343
841.4000	69.6571
841.3000	69.6837
841.2000	69.7108
841.1000	69.7403
841.0000	69.7678
840.9000	69.8015
840.8000	69.8358
840.7000	69.8752
840.6000	69.9202
840.5000	69.9622
840.4000	70.0117
840.3000	70.0602
840.2000	70.1168
840.1000	70.1644
840.0000	70.2229
839.9000	70.2821
839.8000	70.3387
839.7000	70.3916
839.6000	70.4538
839.5000	70.5213
839.4000	70.5919
839.3000	70.6638
839.2000	70.7387
839.1000	70.8147
839.0000	70.8904
838.9000	70.9636
838.8000	71.0317
838.7000	71.1161
838.6000	71.1905
838.5000	71.2839
838.4000	71.3696
838.3000	71.4606
838.2000	71.5535
838.1000	71.6524
838.0000	71.7446
837.9000	71.8331
837.8000	71.9252
837.7000	72.027
837.6000	72.1346
837.5000	72.2435
837.4000	72.3408
837.3000	72.4543
837.2000	72.5622
837.1000	72.6652
837.0000	72.787
836.9000	72.8896
836.8000	73.0042
836.7000	73.1174
836.6000	73.2317
836.5000	73.3392
836.4000	73.4491
836.3000	73.5738
836.2000	73.6924
836.1000	73.81
836.0000	73.9208
835.9000	74.0401
835.8000	74.1636
835.7000	74.2808
835.6000	74.4023
835.5000	74.5184
835.4000	74.6279
835.3000	74.7476
835.2000	74.8694
835.1000	74.9928
835.0000	75.11
834.9000	75.2407
834.8000	75.3703
834.7000	75.4879
834.6000	75.6157
834.5000	75.7376
834.4000	75.8622
834.3000	75.9766
834.2000	76.0893
834.1000	76.2052
834.0000	76.3283
833.9000	76.4534
833.8000	76.5688
833.7000	76.6895
833.6000	76.8011
833.5000	76.9145
833.4000	77.0317
833.3000	77.1346
833.2000	77.2398
833.1000	77.3453
833.0000	77.4499
832.9000	77.5466
832.8000	77.6398
832.7000	77.7354
832.6000	77.8405
832.5000	77.9432
832.4000	78.0291
832.3000	78.132
832.2000	78.2317
832.1000	78.3227
832.0000	78.41
831.9000	78.4982
831.8000	78.5813
831.7000	78.6644
831.6000	78.7425
831.5000	78.8219
831.4000	78.8988
831.3000	78.9787
831.2000	79.0539
831.1000	79.1259
831.0000	79.2002
830.9000	79.2663
830.8000	79.3331
830.7000	79.3814
830.6000	79.4313
830.5000	79.4811
830.4000	79.5256
830.3000	79.5657
830.2000	79.6108
830.1000	79.6568
830.0000	79.6966
829.9000	79.7392
829.8000	79.7746
829.7000	79.8036
829.6000	79.8324
829.5000	79.8577
829.4000	79.8766
829.3000	79.8877
829.2000	79.9073
829.1000	79.9311
829.0000	79.9492
828.9000	79.9633
828.8000	79.9751
828.7000	79.9793
828.6000	79.9852
828.5000	79.9876
828.4000	79.9822
828.3000	79.9742
828.2000	79.9619
828.1000	79.9499
828.0000	79.9359
827.9000	79.9202
827.8000	79.8897
827.7000	79.8658
827.6000	79.8369
827.5000	79.7909
827.4000	79.7467
827.3000	79.706
827.2000	79.6693
827.1000	79.629
827.0000	79.5791
826.9000	79.5201
826.8000	79.4652
826.7000	79.4101
826.6000	79.3493
826.5000	79.2866
826.4000	79.2244
826.3000	79.1624
826.2000	79.0906
826.1000	79.016
826.0000	78.9424
825.9000	78.87
825.8000	78.7962
825.7000	78.712
825.6000	78.6254
825.5000	78.5385
825.4000	78.4573
825.3000	78.3749
825.2000	78.288
825.1000	78.1955
825.0000	78.1009
824.9000	77.9994
824.8000	77.9001
824.7000	77.7905
824.6000	77.6972
824.5000	77.6019
824.4000	77.4996
824.3000	77.3939
824.2000	77.2828
824.1000	77.1725
824.0000	77.0624
823.9000	76.9534
823.8000	76.8334
823.7000	76.7155
823.6000	76.5995
823.5000	76.4726
823.4000	76.3519
823.3000	76.2416
823.2000	76.1223
823.1000	76.0029
823.0000	75.8811
822.9000	75.7596
822.8000	75.6357
822.7000	75.5182
822.6000	75.4035
822.5000	75.2897
822.4000	75.1682
822.3000	75.0469
822.2000	74.9249
822.1000	74.8043
822.0000	74.6814
821.9000	74.5684
821.8000	74.4429
821.7000	74.3207
821.6000	74.199
821.5000	74.0772
821.4000	73.9601
821.3000	73.84
821.2000	73.7214
821.1000	73.6059
821.0000	73.4831
820.9000	73.3539
820.8000	73.2328
820.7000	73.1197
820.6000	73.0061
820.5000	72.8915
820.4000	72.7823
820.3000	72.6677
820.2000	72.5631
820.1000	72.4554
820.0000	72.3493
819.9000	72.2482
819.8000	72.1351
819.7000	72.0314
819.6000	71.9271
819.5000	71.8224
819.4000	71.7269
819.3000	71.638
819.2000	71.5527
819.1000	71.4519
819.0000	71.3603
818.9000	71.2775
818.8000	71.1963
818.7000	71.1141
818.6000	71.0311
818.5000	70.9535
818.4000	70.8807
818.3000	70.8067
818.2000	70.7413
818.1000	70.677
818.0000	70.6119
817.9000	70.5481
817.8000	70.489
817.7000	70.4311
817.6000	70.372
817.5000	70.3208
817.4000	70.2682
817.3000	70.2169
817.2000	70.1674
817.1000	70.1308
817.0000	70.0949
816.9000	70.0594
816.8000	70.0214
816.7000	69.9915
816.6000	69.9611
816.5000	69.9361
816.4000	69.9134
816.3000	69.8948
816.2000	69.8779
816.1000	69.8681
816.0000	69.8564
815.9000	69.8483
815.8000	69.8464
815.7000	69.8441
815.6000	69.846
815.5000	69.8459
815.4000	69.8474
815.3000	69.8485
815.2000	69.8613
815.1000	69.8771
815.0000	69.8946
814.9000	69.9111
814.8000	69.9417
814.7000	69.9703
814.6000	69.9956
814.5000	70.0201
814.4000	70.0506
814.3000	70.093
814.2000	70.1316
814.1000	70.1687
814.0000	70.212
813.9000	70.2565
813.8000	70.3067
813.7000	70.3648
813.6000	70.4115
813.5000	70.4729
813.4000	70.5391
813.3000	70.6009
813.2000	70.6612
813.1000	70.7269
813.0000	70.7982
812.9000	70.8741
812.8000	70.9506
812.7000	71.0255
812.6000	71.104
812.5000	71.1843
812.4000	71.2648
812.3000	71.351
812.2000	71.4394
812.1000	71.5275
812.0000	71.6246
811.9000	71.7088
811.8000	71.792
811.7000	71.8935
811.6000	71.988
811.5000	72.0858
811.4000	72.1855
811.3000	72.2925
811.2000	72.3976
811.1000	72.5058
811.0000	72.6134
810.9000	72.7229
810.8000	72.8334
810.7000	72.942
810.6000	73.0656
810.5000	73.1739
810.4000	73.2842
810.3000	73.3981
810.2000	73.5183
810.1000	73.6295
810.0000	73.7489
809.9000	73.8633
809.8000	73.9862
809.7000	74.1038
809.6000	74.2273
809.5000	74.3471
809.4000	74.4759
809.3000	74.6101
809.2000	74.7375
809.1000	74.8701
809.0000	74.9811
808.9000	75.1139
808.8000	75.2417
808.7000	75.3686
808.6000	75.4976
808.5000	75.6305
808.4000	75.7597
808.3000	75.8893
808.2000	76.0122
808.1000	76.137
808.0000	76.2601
807.9000	76.3773
807.8000	76.4917
807.7000	76.6058
807.6000	76.7191
807.5000	76.8302
807.4000	76.9508
807.3000	77.0664
807.2000	77.1833
807.1000	77.2958
807.0000	77.4083
806.9000	77.517
806.8000	77.6213
806.7000	77.7254
806.6000	77.8315
806.5000	77.9333
806.4000	78.0363
806.3000	78.1424
806.2000	78.2416
806.1000	78.341
806.0000	78.4375
805.9000	78.5295
805.8000	78.615
805.7000	78.6982
805.6000	78.773
805.5000	78.8586
805.4000	78.9391
805.3000	79.0041
805.2000	79.0744
805.1000	79.1503
805.0000	79.2224
804.9000	79.2846
804.8000	79.3451
804.7000	79.3993
804.6000	79.4572
804.5000	79.5031
804.4000	79.5522
804.3000	79.5967
804.2000	79.6384
804.1000	79.676
804.0000	79.7152
803.9000	79.7461
803.8000	79.7712
803.7000	79.7959
803.6000	79.8195
803.5000	79.8368
803.4000	79.8515
803.3000	79.865
803.2000	79.8694
803.1000	79.8736
803.0000	79.8674
802.9000	79.867
802.8000	79.8651
802.7000	79.8571
802.6000	79.849
802.5000	79.8337
802.4000	79.8264
802.3000	79.8069
802.2000	79.7842
802.1000	79.7679
802.0000	79.7419
801.9000	79.7039
801.8000	79.6616
801.7000	79.6218
801.6000	79.5796
801.5000	79.5384
801.4000	79.4924
801.3000	79.4463
801.2000	79.3908
801.1000	79.3386
801.0000	79.281
800.9000	79.2172
800.8000	79.146
800.7000	79.0742
800.6000	79.0024
800.5000	78.9257
800.4000	78.8405
800.3000	78.761
800.2000	78.6773
800.1000	78.5835
800.0000	78.4889
799.9000	78.3941
799.8000	78.2992
799.7000	78.1935
799.6000	78.094
799.5000	77.9837
799.4000	77.8706
799.3000	77.7692
799.2000	77.6552
799.1000	77.5428
799.0000	77.4221
798.9000	77.3078
798.8000	77.1936
798.7000	77.073
798.6000	76.9591
798.5000	76.8381
798.4000	76.7142
798.3000	76.5845
798.2000	76.4578
798.1000	76.3367
798.0000	76.2077
797.9000	76.0853
797.8000	75.9578
797.7000	75.8275
797.6000	75.7014
797.5000	75.5725
797.4000	75.4457
797.3000	75.3154
797.2000	75.1933
797.1000	75.0681
797.0000	74.9371
796.9000	74.8178
796.8000	74.6969
796.7000	74.5683
796.6000	74.4464
796.5000	74.3195
796.4000	74.1914
796.3000	74.0635
796.2000	73.9435
796.1000	73.8127
796.0000	73.6909
795.9000	73.5673
795.8000	73.4464
795.7000	73.3225
795.6000	73.1973
795.5000	73.0727
795.4000	72.9491
795.3000	72.8269
795.2000	72.7117
795.1000	72.5999
795.0000	72.4902
794.9000	72.3758
794.8000	72.2727
794.7000	72.1655
794.6000	72.0624
794.5000	71.965
794.4000	71.8605
794.3000	71.7564
794.2000	71.6615
794.1000	71.5695
794.0000	71.4804
793.9000	71.3943
793.8000	71.3088
793.7000	71.2258
793.6000	71.1449
793.5000	71.0659
793.4000	70.9862
793.3000	70.9098
793.2000	70.8335
793.1000	70.7673
793.0000	70.6968
792.9000	70.6307
792.8000	70.5729
792.7000	70.5212
792.6000	70.4658
792.5000	70.4071
792.4000	70.3548
792.3000	70.305
792.2000	70.262
792.1000	70.2186
792.0000	70.1806
791.9000	70.1489
791.8000	70.1167
791.7000	70.0965
791.6000	70.0722
791.5000	70.0447
791.4000	70.0288
791.3000	70.0166
791.2000	69.9997
791.1000	69.9893
791.0000	69.9835
790.9000	69.9853
790.8000	69.9865
790.7000	69.9948
790.6000	69.9994
790.5000	70.0123
790.4000	70.0284
790.3000	70.0401
790.2000	70.0581
790.1000	70.0779
790.0000	70.1051
789.9000	70.1367
789.8000	70.163
789.7000	70.1969
789.6000	70.2386
789.5000	70.2806
789.4000	70.3233
789.3000	70.3729
789.2000	70.4244
789.1000	70.4826
789.0000	70.5406
788.9000	70.5956
788.8000	70.652
788.7000	70.7192
788.6000	70.791
788.5000	70.8603
788.4000	70.9312
788.3000	71.0101
788.2000	71.0948
788.1000	71.1747
788.0000	71.2639
787.9000	71.3514
787.8000	71.4445
787.7000	71.5317
787.6000	71.6189
787.5000	71.7098
787.4000	71.8073
787.3000	71.9097
787.2000	72.0129
787.1000	72.1174
787.0000	72.2212
786.9000	72.3276
786.8000	72.4347
786.7000	72.5441
786.6000	72.658
786.5000	72.7787
786.4000	72.8838
786.3000	72.9983
786.2000	73.1157
786.1000	73.2371
786.0000	73.3607
785.9000	73.4839
785.8000	73.6097
785.7000	73.7386
785.6000	73.8654
785.5000	73.9944
785.4000	74.113
785.3000	74.2431
785.2000	74.3733
785.1000	74.5
785.0000	74.6288
784.9000	74.7504
784.8000	74.8866
784.7000	75.0174
784.6000	75.1451
784.5000	75.2745
784.4000	75.409
784.3000	75.535
784.2000	75.662
784.1000	75.783
784.0000	75.911
783.9000	76.038
783.8000	76.1677
783.7000	76.2916
783.6000	76.4157
783.5000	76.5417
783.4000	76.6618
783.3000	76.7852
783.2000	76.9035
783.1000	77.0189
783.0000	77.1368
782.9000	77.2509
782.8000	77.3609
782.7000	77.4724
782.6000	77.5818
782.5000	77.6949
782.4000	77.8039
782.3000	77.9077
782.2000	78.017
782.1000	78.1174
782.0000	78.2178
781.9000	78.3129
781.8000	78.4039
781.7000	78.4938
781.6000	78.582
781.5000	78.668
781.4000	78.7486
781.3000	78.8347
781.2000	78.9155
781.1000	78.9905
781.0000	79.0569
780.9000	79.1176
780.8000	79.181
780.7000	79.2437
780.6000	79.2932
780.5000	79.3535
780.4000	79.4026
780.3000	79.4519
780.2000	79.4999
780.1000	79.5396
780.0000	79.5724
779.9000	79.6106
779.8000	79.6415
779.7000	79.6613
779.6000	79.6798
779.5000	79.7008
779.4000	79.7277
779.3000	79.7438
779.2000	79.7488
779.1000	79.7603
779.0000	79.7701
778.9000	79.7639
778.8000	79.7562
778.7000	79.7456
778.6000	79.7295
778.5000	79.7107
778.4000	79.6923
778.3000	79.6633
778.2000	79.6371
778.1000	79.6105
778.0000	79.5796
777.9000	79.5433
777.8000	79.4957
777.7000	79.4529
777.6000	79.4004
777.5000	79.3401
777.4000	79.2804
777.3000	79.217
777.2000	79.155
777.1000	79.0851
777.0000	79.0147
776.9000	78.9452
776.8000	78.8763
776.7000	78.8009
776.6000	78.7225
776.5000	78.6323
776.4000	78.5468
776.3000	78.4561
776.2000	78.3576
776.1000	78.2629
776.0000	78.1679
775.9000	78.0677
775.8000	77.9642
775.7000	77.8643
775.6000	77.7561
775.5000	77.6508
775.4000	77.5446
775.3000	77.4307
775.2000	77.3121
775.1000	77.1984
775.0000	77.0751
774.9000	76.9601
774.8000	76.8334
774.7000	76.7053
774.6000	76.5822
774.5000	76.4547
774.4000	76.331
774.3000	76.199
774.2000	76.0678
774.1000	75.9361
774.0000	75.817
773.9000	75.6833
773.8000	75.5476
773.7000	75.4218
773.6000	75.288
773.5000	75.1537
773.4000	75.0237
773.3000	74.8901
773.2000	74.7611
773.1000	74.6316
773.0000	74.5051
772.9000	74.3713
772.8000	74.2413
772.7000	74.1184
772.6000	73.994
772.5000	73.8673
772.4000	73.7326
772.3000	73.6034
772.2000	73.4744
772.1000	73.3425
772.0000	73.2194
771.9000	73.0967
771.8000	72.9791
771.7000	72.8567
771.6000	72.7393
771.5000	72.6283
771.4000	72.5085
771.3000	72.4007
771.2000	72.2864
771.1000	72.1793
771.0000	72.0712
770.9000	71.968
770.8000	71.8658
770.7000	71.7683
770.6000	71.6747
770.5000	71.5846
770.4000	71.4921
770.3000	71.4055
770.2000	71.3135
770.1000	71.23
770.0000	71.1439
769.9000	71.0613
769.8000	70.9942
769.7000	70.9202
769.6000	70.8522
769.5000	70.7837
769.4000	70.7196
769.3000	70.6595
769.2000	70.597
769.1000	70.5434
769.0000	70.4993
768.9000	70.4453
768.8000	70.4036
768.7000	70.3598
768.6000	70.3215
768.5000	70.2896
768.4000	70.2612
768.3000	70.236
768.2000	70.2061
768.1000	70.1854
768.0000	70.1673
767.9000	70.151
767.8000	70.1452
767.7000	70.1357
767.6000	70.1349
767.5000	70.1372
767.4000	70.1347
767.3000	70.1456
767.2000	70.1545
767.1000	70.1665
767.0000	70.1876
766.9000	70.208
766.8000	70.229
766.7000	70.2505
766.6000	70.285
766.5000	70.3205
766.4000	70.3598
766.3000	70.4017
766.2000	70.441
766.1000	70.4896
766.0000	70.5396
765.9000	70.5894
765.8000	70.647
765.7000	70.7099
765.6000	70.7758
765.5000	70.8456
765.4000	70.9159
765.3000	70.9916
765.2000	71.0704
765.1000	71.1526
765.0000	71.2314
764.9000	71.3167
764.8000	71.403
764.7000	71.4922
764.6000	71.5867
764.5000	71.6814
764.4000	71.7863
764.3000	71.899
764.2000	72.0031
764.1000	72.1028
764.0000	72.2069
763.9000	72.3138
763.8000	72.4228
763.7000	72.5326
763.6000	72.6468
763.5000	72.7682
763.4000	72.8876
763.3000	73.0065
763.2000	73.1251
763.1000	73.2483
763.0000	73.3768
762.9000	73.5053
762.8000	73.6327
762.7000	73.7542
762.6000	73.8849
762.5000	74.0213
762.4000	74.1543
762.3000	74.2865
762.2000	74.4253
762.1000	74.5614
762.0000	74.6962
761.9000	74.8268
761.8000	74.9609
761.7000	75.0933
761.6000	75.232
761.5000	75.3653
761.4000	75.4925
761.3000	75.6249
761.2000	75.7523
761.1000	75.8851
761.0000	76.0202
760.9000	76.1434
760.8000	76.2724
760.7000	76.4046
760.6000	76.5284
760.5000	76.6566
760.4000	76.7806
760.3000	76.9091
760.2000	77.0384
760.1000	77.1618
760.0000	77.2817
759.9000	77.3983
759.8000	77.5227
759.7000	77.6335
759.6000	77.7463
759.5000	77.8558
759.4000	77.9581
759.3000	78.0722
759.2000	78.1724
759.1000	78.2677
759.0000	78.3652
758.9000	78.4556
758.8000	78.5507
758.7000	78.634
758.6000	78.7098
758.5000	78.7874
758.4000	78.8626
758.3000	78.9376
758.2000	79.0029
758.1000	79.0754
758.0000	79.1377
757.9000	79.1966
757.8000	79.2479
757.7000	79.2931
757.6000	79.3442
757.5000	79.3939
757.4000	79.429
757.3000	79.4642
757.2000	79.4952
757.1000	79.5254
757.0000	79.5571
756.9000	79.5792
756.8000	79.5962
756.7000	79.6094
756.6000	79.6154
756.5000	79.6177
756.4000	79.6213
756.3000	79.6175
756.2000	79.6156
756.1000	79.6029
756.0000	79.5875
755.9000	79.5635
755.8000	79.5398
755.7000	79.5169
755.6000	79.4859
755.5000	79.4457
755.4000	79.4016
755.3000	79.3631
755.2000	79.3152
755.1000	79.2683
755.0000	79.2168
754.9000	79.1631
754.8000	79.0999
754.7000	79.0334
754.6000	78.961
754.5000	78.8929
754.4000	78.8114
754.3000	78.73
754.2000	78.6506
754.1000	78.5622
754.0000	78.4687
753.9000	78.376
753.8000	78.2851
753.7000	78.1849
753.6000	78.0839
753.5000	77.975
753.4000	77.8712
753.3000	77.7508
753.2000	77.6416
753.1000	77.5247
753.0000	77.4085
752.9000	77.2876
752.8000	77.1686
752.7000	77.0432
752.6000	76.9206
752.5000	76.79
752.4000	76.6652
752.3000	76.5368
752.2000	76.4013
752.1000	76.2696
752.0000	76.1405
751.9000	76.0064
751.8000	75.8668
751.7000	75.7343
751.6000	75.5948
751.5000	75.4562
751.4000	75.317
751.3000	75.1756
751.2000	75.0403
751.1000	74.9094
751.0000	74.7716
750.9000	74.638
750.8000	74.4997
750.7000	74.365
750.6000	74.2311
750.5000	74.0925
750.4000	73.9527
750.3000	73.8184
750.2000	73.6879
750.1000	73.5557
750.0000	73.427
749.9000	73.3039
749.8000	73.1777
749.7000	73.0549
749.6000	72.9297
749.5000	72.8073
749.4000	72.6872
749.3000	72.5698
749.2000	72.4599
749.1000	72.3462
749.0000	72.2342
748.9000	72.1279
748.8000	72.0215
748.7000	71.9158
748.6000	71.8147
748.5000	71.7151
748.4000	71.622
748.3000	71.5216
748.2000	71.4349
748.1000	71.3525
748.0000	71.2716
747.9000	71.1905
747.8000	71.112
747.7000	71.0385
747.6000	70.965
747.5000	70.8968
747.4000	70.8271
747.3000	70.7638
747.2000	70.7071
747.1000	70.6578
747.0000	70.607
746.9000	70.5629
746.8000	70.5149
746.7000	70.4814
746.6000	70.4434
746.5000	70.4074
746.4000	70.3763
746.3000	70.353
746.2000	70.3326
746.1000	70.313
746.0000	70.2962
745.9000	70.2902
745.8000	70.2902
745.7000	70.2869
745.6000	70.2937
745.5000	70.3024
745.4000	70.3112
745.3000	70.3266
745.2000	70.3495
745.1000	70.3715
745.0000	70.4018
744.9000	70.4336
744.8000	70.4689
744.7000	70.5071
744.6000	70.5492
744.5000	70.5977
744.4000	70.6476
744.3000	70.7009
744.2000	70.7563
744.1000	70.8214
744.0000	70.8829
743.9000	70.9467
743.8000	71.0185
743.7000	71.091
743.6000	71.1633
743.5000	71.2459
743.4000	71.3307
743.3000	71.4238
743.2000	71.511
743.1000	71.6014
743.0000	71.6969
742.9000	71.7946
742.8000	71.9013
742.7000	72.0028
742.6000	72.1167
742.5000	72.2286
742.4000	72.3449
742.3000	72.465
742.2000	72.5843
742.1000	72.7098
742.0000	72.8356
741.9000	72.9613
741.8000	73.0872
741.7000	73.211
741.6000	73.3434
741.5000	73.4818
741.4000	73.6158
741.3000	73.747
741.2000	73.8784
741.1000	74.0141
741.0000	74.1475
740.9000	74.2848
740.8000	74.4215
740.7000	74.5565
740.6000	74.6933
740.5000	74.8278
740.4000	74.9697
740.3000	75.1092
740.2000	75.2479
740.1000	75.3822
740.0000	75.4892
739.9000	75.6309
739.8000	75.7704
739.7000	75.9058
739.6000	76.0374
739.5000	76.1733
739.4000	76.3083
739.3000	76.4398
739.2000	76.5746
739.1000	76.6976
739.0000	76.8266
738.9000	76.9546
738.8000	77.0766
738.7000	77.1976
738.6000	77.3179
738.5000	77.4314
738.4000	77.5489
738.3000	77.6538
738.2000	77.7613
738.1000	77.8634
738.0000	77.9655
737.9000	78.0638
737.8000	78.161
737.7000	78.2575
737.6000	78.349
737.5000	78.4418
737.4000	78.5247
737.3000	78.6003
737.2000	78.6796
737.1000	78.7549
737.0000	78.8251
736.9000	78.89
736.8000	78.9522
736.7000	79.0104
736.6000	79.0692
736.5000	79.1244
736.4000	79.1818
736.3000	79.2231
736.2000	79.2612
736.1000	79.2954
736.0000	79.3239
735.9000	79.3491
735.8000	79.373
735.7000	79.3962
735.6000	79.4081
735.5000	79.4153
735.4000	79.4184
735.3000	79.4253
735.2000	79.4229
735.1000	79.4207
735.0000	79.4076
734.9000	79.3879
734.8000	79.3623
734.7000	79.3363
734.6000	79.3078
734.5000	79.2759
734.4000	79.2388
734.3000	79.1992
734.2000	79.1484
734.1000	79.0954
734.0000	79.0459
733.9000	78.9891
733.8000	78.9266
733.7000	78.8565
733.6000	78.7841
733.5000	78.7054
733.4000	78.6233
733.3000	78.541
733.2000	78.4556
733.1000	78.3686
733.0000	78.2771
732.9000	78.176
732.8000	78.0741
732.7000	77.9697
732.6000	77.8674
732.5000	77.7596
732.4000	77.6407
732.3000	77.5265
732.2000	77.4084
732.1000	77.2902
732.0000	77.1702
731.9000	77.0445
731.8000	76.9229
731.7000	76.7969
731.6000	76.6658
731.5000	76.5372
731.4000	76.403
731.3000	76.2726
731.2000	76.1416
731.1000	76.008
731.0000	75.8727
730.9000	75.7334
730.8000	75.5997
730.7000	75.4631
730.6000	75.3243
730.5000	75.1885
730.4000	75.0477
730.3000	74.9102
730.2000	74.7675
730.1000	74.6307
730.0000	74.4937
729.9000	74.351
729.8000	74.2134
729.7000	74.0762
729.6000	73.9388
729.5000	73.8019
729.4000	73.6657
729.3000	73.533
729.2000	73.4031
729.1000	73.2724
729.0000	73.1465
728.9000	73.0156
728.8000	72.8939
728.7000	72.7735
728.6000	72.658
728.5000	72.5377
728.4000	72.4212
728.3000	72.3088
728.2000	72.2005
728.1000	72.0931
728.0000	71.9881
727.9000	71.8873
727.8000	71.7906
727.7000	71.6977
727.6000	71.6001
727.5000	71.5093
727.4000	71.4194
727.3000	71.3373
727.2000	71.2538
727.1000	71.1768
727.0000	71.1007
726.9000	71.0314
726.8000	70.9658
726.7000	70.9051
726.6000	70.8431
726.5000	70.7869
726.4000	70.7355
726.3000	70.6872
726.2000	70.6441
726.1000	70.5952
726.0000	70.5606
725.9000	70.5259
725.8000	70.4973
725.7000	70.47
725.6000	70.4515
725.5000	70.4319
725.4000	70.4196
725.3000	70.4109
725.2000	70.4069
725.1000	70.4077
725.0000	70.4133
724.9000	70.4216
724.8000	70.4332
724.7000	70.4512
724.6000	70.4716
724.5000	70.5052
724.4000	70.536
724.3000	70.5737
724.2000	70.6133
724.1000	70.6604
724.0000	70.7042
723.9000	70.7594
723.8000	70.8171
723.7000	70.8742
723.6000	70.9412
723.5000	71.0089
723.4000	71.0788
723.3000	71.1541
723.2000	71.2345
723.1000	71.3171
723.0000	71.4013
722.9000	71.4924
722.8000	71.5881
722.7000	71.6819
722.6000	71.7787
722.5000	71.8814
722.4000	71.992
722.3000	72.1038
722.2000	72.2111
722.1000	72.3249
722.0000	72.4411
721.9000	72.5614
721.8000	72.6902
721.7000	72.8124
721.6000	72.9375
721.5000	73.0637
721.4000	73.196
721.3000	73.3266
721.2000	73.4598
721.1000	73.5968
721.0000	73.7355
720.9000	73.8683
720.8000	74.0048
720.7000	74.1399
720.6000	74.2807
720.5000	74.4285
720.4000	74.5606
720.3000	74.6966
720.2000	74.8317
720.1000	74.9706
720.0000	75.1126
719.9000	75.2541
719.8000	75.3913
719.7000	75.5302
719.6000	75.6637
719.5000	75.8017
719.4000	75.9396
719.3000	76.08
719.2000	76.2108
719.1000	76.3449
719.0000	76.4796
718.9000	76.6043
718.8000	76.7427
718.7000	76.8745
718.6000	76.997
718.5000	77.1263
718.4000	77.2482
718.3000	77.3657
718.2000	77.483
718.1000	77.591
718.0000	77.7029
717.9000	77.8079
717.8000	77.9138
717.7000	78.0107
717.6000	78.1109
717.5000	78.2025
717.4000	78.2914
717.3000	78.3779
717.2000	78.4604
717.1000	78.5375
717.0000	78.6189
716.9000	78.6893
716.8000	78.7557
716.7000	78.8192
716.6000	78.8803
716.5000	78.937
716.4000	78.9883
716.3000	79.0394
716.2000	79.0789
716.1000	79.1212
716.0000	79.1563
715.9000	79.1877
715.8000	79.2142
715.7000	79.2363
715.6000	79.2473
715.5000	79.2573
715.4000	79.2602
715.3000	79.2603
715.2000	79.2558
715.1000	79.2477
715.0000	79.2327
714.9000	79.2161
714.8000	79.1963
714.7000	79.1623
714.6000	79.1297
714.5000	79.0895
714.4000	79.0446
714.3000	78.9938
714.2000	78.9398
714.1000	78.8848
714.0000	78.825
713.9000	78.7579
713.8000	78.6881
713.7000	78.6134
713.6000	78.532
713.5000	78.4505
713.4000	78.3588
713.3000	78.2673
713.2000	78.173
713.1000	78.0781
713.0000	77.9775
712.9000	77.8742
712.8000	77.7683
712.7000	77.6591
712.6000	77.5438
712.5000	77.4232
712.4000	77.3009
712.3000	77.1785
712.2000	77.0535
712.1000	76.9222
712.0000	76.7899
711.9000	76.6529
711.8000	76.5262
711.7000	76.3934
711.6000	76.2544
711.5000	76.1096
711.4000	75.9685
711.3000	75.8238
711.2000	75.6789
711.1000	75.5329
711.0000	75.3877
710.9000	75.2408
710.8000	75.0951
710.7000	74.946
710.6000	74.7987
710.5000	74.6539
710.4000	74.5135
710.3000	74.3721
710.2000	74.2234
710.1000	74.0774
710.0000	73.9306
709.9000	73.7962
709.8000	73.654
709.7000	73.5164
709.6000	73.3804
709.5000	73.2482
709.4000	73.1136
709.3000	72.982
709.2000	72.8494
709.1000	72.7233
709.0000	72.5945
708.9000	72.4702
708.8000	72.3497
708.7000	72.2304
708.6000	72.1144
708.5000	72.0035
708.4000	71.8969
708.3000	71.7883
708.2000	71.6865
708.1000	71.5862
708.0000	71.4876
707.9000	71.3924
707.8000	71.308
707.7000	71.2285
707.6000	71.1478
707.5000	71.0742
707.4000	71.0027
707.3000	70.9388
707.2000	70.875
707.1000	70.8171
707.0000	70.7618
706.9000	70.7074
706.8000	70.6638
706.7000	70.622
706.6000	70.5823
706.5000	70.5508
706.4000	70.5228
706.3000	70.499
706.2000	70.4778
706.1000	70.459
706.0000	70.45
705.9000	70.4426
705.8000	70.4436
705.7000	70.4444
705.6000	70.4487
705.5000	70.4594
705.4000	70.4771
705.3000	70.5006
705.2000	70.5223
705.1000	70.5516
705.0000	70.5852
704.9000	70.6211
704.8000	70.6659
704.7000	70.71
704.6000	70.7606
704.5000	70.8221
704.4000	70.8842
704.3000	70.9494
704.2000	71.0187
704.1000	71.0986
704.0000	71.1777
703.9000	71.2574
703.8000	71.343
703.7000	71.4306
703.6000	71.5268
703.5000	71.6237
703.4000	71.7274
703.3000	71.8351
703.2000	71.9426
703.1000	72.0592
703.0000	72.1749
702.9000	72.285
702.8000	72.407
702.7000	72.5303
702.6000	72.6576
702.5000	72.7826
702.4000	72.914
702.3000	73.0465
702.2000	73.1828
702.1000	73.3231
702.0000	73.4626
701.9000	73.6035
701.8000	73.7455
701.7000	73.8862
701.6000	74.0304
701.5000	74.1748
701.4000	74.3183
701.3000	74.4648
701.2000	74.6123
701.1000	74.7579
701.0000	74.9014
700.9000	75.0425
700.8000	75.1873
700.7000	75.3322
700.6000	75.474
700.5000	75.6141
700.4000	75.7523
700.3000	75.89
700.2000	76.0272
700.1000	76.1632
700.0000	76.2946
699.9000	76.4279
699.8000	76.5562
699.7000	76.6828
699.6000	76.8035
699.5000	76.9249
699.4000	77.0438
699.3000	77.162
699.2000	77.2758
699.1000	77.3888
699.0000	77.4945
698.9000	77.5961
698.8000	77.6939
698.7000	77.7936
698.6000	77.8866
698.5000	77.9761
698.4000	78.0612
698.3000	78.1391
698.2000	78.2168
698.1000	78.2886
698.0000	78.3575
697.9000	78.4232
697.8000	78.4811
697.7000	78.5357
697.6000	78.5847
697.5000	78.629
697.4000	78.6718
697.3000	78.7079
697.2000	78.7374
697.1000	78.7603
697.0000	78.7821
696.9000	78.7969
696.8000	78.8044
696.7000	78.8118
696.6000	78.8111
696.5000	78.8093
696.4000	78.7966
696.3000	78.7813
696.2000	78.7651
696.1000	78.7404
696.0000	78.709
695.9000	78.6712
695.8000	78.6329
695.7000	78.5927
695.6000	78.547
695.5000	78.4981
695.4000	78.4407
695.3000	78.3809
695.2000	78.3187
695.1000	78.2512
695.0000	78.1803
694.9000	78.1043
694.8000	78.0268
694.7000	77.9434
694.6000	77.8533
694.5000	77.7625
694.4000	77.6708
694.3000	77.5786
694.2000	77.4775
694.1000	77.3712
694.0000	77.2657
693.9000	77.1548
693.8000	77.0424
693.7000	76.9279
693.6000	76.8134
693.5000	76.6971
693.4000	76.5727
693.3000	76.4499
693.2000	76.3309
693.1000	76.2078
693.0000	76.0824
692.9000	75.9525
692.8000	75.8234
692.7000	75.6948
692.6000	75.5644
692.5000	75.4381
692.4000	75.3078
692.3000	75.1778
692.2000	75.0486
692.1000	74.9186
692.0000	74.7867
691.9000	74.6506
691.8000	74.5217
691.7000	74.3937
691.6000	74.2604
691.5000	74.128
691.4000	73.9988
691.3000	73.8733
691.2000	73.748
691.1000	73.6213
691.0000	73.4971
690.9000	73.3751
690.8000	73.2569
690.7000	73.1381
690.6000	73.0221
690.5000	72.9074
690.4000	72.7997
690.3000	72.6974
690.2000	72.5978
690.1000	72.492
690.0000	72.3945
689.9000	72.3026
689.8000	72.2129
689.7000	72.1293
689.6000	72.0417
689.5000	71.9607
689.4000	71.8835
689.3000	71.8093
689.2000	71.7378
689.1000	71.6738
689.0000	71.6131
688.9000	71.5583
688.8000	71.5047
688.7000	71.4544
688.6000	71.4063
688.5000	71.37
688.4000	71.3345
688.3000	71.3
688.2000	71.2742
688.1000	71.2515
688.0000	71.2386
687.9000	71.2237
687.8000	71.2193
687.7000	71.2183
687.6000	71.2197
687.5000	71.2225
687.4000	71.2301
687.3000	71.2448
687.2000	71.2642
687.1000	71.2878
687.0000	71.3164
686.9000	71.3514
686.8000	71.3917
686.7000	71.436
686.6000	71.4816
686.5000	71.5304
686.4000	71.5859
686.3000	71.6496
686.2000	71.7134
686.1000	71.7801
686.0000	71.857
685.9000	71.9353
685.8000	72.0191
685.7000	72.1072
685.6000	72.1987
685.5000	72.2914
685.4000	72.3925
685.3000	72.4946
685.2000	72.6012
685.1000	72.709
685.0000	72.819
684.9000	72.9342
684.8000	73.0516
684.7000	73.1701
684.6000	73.2947
684.5000	73.4195
684.4000	73.5464
684.3000	73.6774
684.2000	73.813
684.1000	73.9459
684.0000	74.0826
683.9000	74.2242
683.8000	74.3656
683.7000	74.5038
683.6000	74.6457
683.5000	74.7891
683.4000	74.9393
683.3000	75.0904
683.2000	75.2378
683.1000	75.3928
683.0000	75.5389
682.9000	75.6944
682.8000	75.8453
682.7000	75.998
682.6000	76.1443
682.5000	76.2941
682.4000	76.4409
682.3000	76.5896
682.2000	76.7336
682.1000	76.875
682.0000	77.0158
681.9000	77.1562
681.8000	77.2917
681.7000	77.4204
681.6000	77.5486
681.5000	77.6688
681.4000	77.7897
681.3000	77.9021
681.2000	78.0133
681.1000	78.1227
681.0000	78.2294
680.9000	78.3266
680.8000	78.4224
680.7000	78.5079
680.6000	78.5895
680.5000	78.6759
680.4000	78.7445
680.3000	78.8115
680.2000	78.8736
680.1000	78.9329
680.0000	78.988
679.9000	79.0318
679.8000	79.0709
679.7000	79.1071
679.6000	79.1352
679.5000	79.1545
679.4000	79.1719
679.3000	79.1822
679.2000	79.1848
679.1000	79.1829
679.0000	79.1822
678.9000	79.1684
678.8000	79.156
678.7000	79.1385
678.6000	79.1121
678.5000	79.0803
678.4000	79.0439
678.3000	79.0053
678.2000	78.9629
678.1000	78.9117
678.0000	78.8568
677.9000	78.7959
677.8000	78.7306
677.7000	78.6632
677.6000	78.5924
677.5000	78.5172
677.4000	78.4295
677.3000	78.3427
677.2000	78.253
677.1000	78.1588
677.0000	78.0607
676.9000	77.96
676.8000	77.8543
676.7000	77.7463
676.6000	77.6324
676.5000	77.5199
676.4000	77.4029
676.3000	77.2871
676.2000	77.1671
676.1000	77.0455
676.0000	76.9199
675.9000	76.7894
675.8000	76.6598
675.7000	76.5292
675.6000	76.3966
675.5000	76.2591
675.4000	76.1211
675.3000	75.9839
675.2000	75.8431
675.1000	75.7033
675.0000	75.5616
674.9000	75.4156
674.8000	75.2748
674.7000	75.1308
674.6000	74.9826
674.5000	74.8338
674.4000	74.6855
674.3000	74.5351
674.2000	74.3919
674.1000	74.2445
674.0000	74.0996
673.9000	73.9555
673.8000	73.8153
673.7000	73.6684
673.6000	73.5286
673.5000	73.3884
673.4000	73.2558
673.3000	73.1265
673.2000	72.9954
673.1000	72.866
673.0000	72.7404
672.9000	72.6201
672.8000	72.5024
672.7000	72.3919
672.6000	72.278
672.5000	72.172
672.4000	72.0653
672.3000	71.9686
672.2000	71.872
672.1000	71.7845
672.0000	71.6971
671.9000	71.6132
671.8000	71.5355
671.7000	71.4608
671.6000	71.3898
671.5000	71.3257
671.4000	71.27
671.3000	71.2145
671.2000	71.1666
671.1000	71.1229
671.0000	71.0853
670.9000	71.0497
670.8000	71.0231
670.7000	70.997
670.6000	70.9746
670.5000	70.9651
670.4000	70.9603
670.3000	70.9595
670.2000	70.9629
670.1000	70.9713
670.0000	70.9881
669.9000	71.0057
669.8000	71.0283
669.7000	71.0593
669.6000	71.0944
669.5000	71.1343
669.4000	71.1813
669.3000	71.2317
669.2000	71.2866
669.1000	71.3493
669.0000	71.4199
668.9000	71.4884
668.8000	71.5607
668.7000	71.6446
668.6000	71.7296
668.5000	71.8176
668.4000	71.9065
668.3000	72.0066
668.2000	72.106
668.1000	72.2118
668.0000	72.3207
667.9000	72.4356
667.8000	72.5538
667.7000	72.6743
667.6000	72.8004
667.5000	72.927
667.4000	73.0552
667.3000	73.1888
667.2000	73.3271
667.1000	73.4612
667.0000	73.5985
666.9000	73.7401
666.8000	73.8815
666.7000	74.0259
666.6000	74.1748
666.5000	74.3238
666.4000	74.4715
666.3000	74.6221
666.2000	74.7693
666.1000	74.9189
666.0000	75.0657
665.9000	75.2148
665.8000	75.3703
665.7000	75.5145
665.6000	75.6601
665.5000	75.8093
665.4000	75.956
665.3000	76.1024
665.2000	76.2486
665.1000	76.3883
665.0000	76.525
664.9000	76.6593
664.8000	76.7929
664.7000	76.9212
664.6000	77.0515
664.5000	77.1807
664.4000	77.3025
664.3000	77.4167
664.2000	77.5255
664.1000	77.6334
664.0000	77.7449
663.9000	77.8468
663.8000	77.9471
663.7000	78.0374
663.6000	78.1257
663.5000	78.2078
663.4000	78.2858
663.3000	78.361
663.2000	78.4283
663.1000	78.4942
663.0000	78.547
662.9000	78.5966
662.8000	78.6439
662.7000	78.6872
662.6000	78.7222
662.5000	78.7573
662.4000	78.7756
662.3000	78.7886
662.2000	78.7932
662.1000	78.8018
662.0000	78.801
661.9000	78.7939
661.8000	78.7815
661.7000	78.7581
661.6000	78.7344
661.5000	78.7027
661.4000	78.6718
661.3000	78.629
661.2000	78.5815
661.1000	78.5292
661.0000	78.47
660.9000	78.4056
660.8000	78.3368
660.7000	78.2679
660.6000	78.193
660.5000	78.1027
660.4000	78.0167
660.3000	77.926
660.2000	77.8321
660.1000	77.7343
660.0000	77.6262
659.9000	77.5161
659.8000	77.4009
659.7000	77.2822
659.6000	77.1574
659.5000	77.0308
659.4000	76.9021
659.3000	76.7703
659.2000	76.6343
659.1000	76.4961
659.0000	76.3537
658.9000	76.2154
658.8000	76.0689
658.7000	75.9222
658.6000	75.7718
658.5000	75.6225
658.4000	75.4781
658.3000	75.3294
658.2000	75.176
658.1000	75.0249
658.0000	74.8792
657.9000	74.7319
657.8000	74.5798
657.7000	74.4296
657.6000	74.2809
657.5000	74.1352
657.4000	73.9914
657.3000	73.8461
657.2000	73.7042
657.1000	73.5663
657.0000	73.4296
656.9000	73.2937
656.8000	73.1577
656.7000	73.0202
656.6000	72.8938
656.5000	72.7681
656.4000	72.6435
656.3000	72.5238
656.2000	72.4117
656.1000	72.3025
656.0000	72.1992
655.9000	72.0946
655.8000	71.9958
655.7000	71.9011
655.6000	71.8115
655.5000	71.7252
655.4000	71.6403
655.3000	71.5644
655.2000	71.4909
655.1000	71.4323
655.0000	71.376
654.9000	71.3245
654.8000	71.2785
654.7000	71.2335
654.6000	71.1965
654.5000	71.1637
654.4000	71.137
654.3000	71.1148
654.2000	71.0984
654.1000	71.0898
654.0000	71.0914
653.9000	71.0938
653.8000	71.1045
653.7000	71.1224
653.6000	71.1478
653.5000	71.1735
653.4000	71.2019
653.3000	71.2396
653.2000	71.2806
653.1000	71.3328
653.0000	71.3887
652.9000	71.4495
652.8000	71.5164
652.7000	71.5911
652.6000	71.673
652.5000	71.7584
652.4000	71.843
652.3000	71.9359
652.2000	72.0334
652.1000	72.1335
652.0000	72.2401
651.9000	72.3499
651.8000	72.464
651.7000	72.5835
651.6000	72.7062
651.5000	72.8294
651.4000	72.9565
651.3000	73.0869
651.2000	73.2231
651.1000	73.3594
651.0000	73.4967
650.9000	73.6366
650.8000	73.7806
650.7000	73.9246
650.6000	74.0742
650.5000	74.222
650.4000	74.3715
650.3000	74.52
650.2000	74.6689
650.1000	74.8158
650.0000	74.968
649.9000	75.1169
649.8000	75.2663
649.7000	75.415
649.6000	75.5601
649.5000	75.7053
649.4000	75.8493
649.3000	75.9933
649.2000	76.131
649.1000	76.2753
649.0000	76.4115
648.9000	76.5463
648.8000	76.6768
648.7000	76.8074
648.6000	76.9383
648.5000	77.063
648.4000	77.1849
648.3000	77.3049
648.2000	77.419
648.1000	77.529
648.0000	77.6319
647.9000	77.7306
647.8000	77.8261
647.7000	77.9175
647.6000	78.0071
647.5000	78.0864
647.4000	78.1624
647.3000	78.2305
647.2000	78.2952
647.1000	78.3532
647.0000	78.403
646.9000	78.451
646.8000	78.4885
646.7000	78.5196
646.6000	78.5458
646.5000	78.5646
646.4000	78.5812
646.3000	78.5915
646.2000	78.5942
646.1000	78.5884
646.0000	78.5772
645.9000	78.56
645.8000	78.5341
645.7000	78.5048
645.6000	78.4692
645.5000	78.4266
645.4000	78.3821
645.3000	78.3291
645.2000	78.2712
645.1000	78.2064
645.0000	78.1353
644.9000	78.0614
644.8000	77.9801
644.7000	77.895
644.6000	77.8007
644.5000	77.7034
644.4000	77.6027
644.3000	77.4971
644.2000	77.3899
644.1000	77.2786
644.0000	77.1589
643.9000	77.0387
643.8000	76.9102
643.7000	76.778
643.6000	76.646
643.5000	76.514
643.4000	76.3764
643.3000	76.2386
643.2000	76.0963
643.1000	75.952
643.0000	75.8085
642.9000	75.6628
642.8000	75.5123
642.7000	75.3612
642.6000	75.211
642.5000	75.0583
642.4000	74.9056
642.3000	74.7531
642.2000	74.6006
642.1000	74.4477
642.0000	74.2982
641.9000	74.148
641.8000	73.9987
641.7000	73.8485
641.6000	73.7052
641.5000	73.5626
641.4000	73.4197
641.3000	73.2793
641.2000	73.1503
641.1000	73.0184
641.0000	72.8899
640.9000	72.7664
640.8000	72.6453
640.7000	72.5305
640.6000	72.4226
640.5000	72.3173
640.4000	72.2113
640.3000	72.1128
640.2000	72.0226
640.1000	71.9332
640.0000	71.8499
639.9000	71.7719
639.8000	71.7037
639.7000	71.6413
639.6000	71.5736
639.5000	71.5201
639.4000	71.4696
639.3000	71.4233
639.2000	71.3868
639.1000	71.3514
639.0000	71.3229
638.9000	71.3017
638.8000	71.2864
638.7000	71.2788
638.6000	71.2738
638.5000	71.2809
638.4000	71.2877
638.3000	71.3069
638.2000	71.3281
638.1000	71.3554
638.0000	71.3936
637.9000	71.4344
637.8000	71.4802
637.7000	71.5326
637.6000	71.5914
637.5000	71.6561
637.4000	71.7241
637.3000	71.7992
637.2000	71.8818
637.1000	71.9655
637.0000	72.0558
636.9000	72.1531
636.8000	72.2585
636.7000	72.3599
636.6000	72.4673
636.5000	72.5784
636.4000	72.6957
636.3000	72.8149
636.2000	72.9396
636.1000	73.0681
636.0000	73.1981
635.9000	73.3325
635.8000	73.4707
635.7000	73.6114
635.6000	73.752
635.5000	73.8957
635.4000	74.0414
635.3000	74.186
635.2000	74.3308
635.1000	74.4793
635.0000	74.63
634.9000	74.7849
634.8000	74.9344
634.7000	75.0856
634.6000	75.2363
634.5000	75.3867
634.4000	75.5349
634.3000	75.684
634.2000	75.8261
634.1000	75.9634
634.0000	76.1049
633.9000	76.2441
633.8000	76.3821
633.7000	76.5163
633.6000	76.646
633.5000	76.7772
633.4000	76.9064
633.3000	77.0233
633.2000	77.1393
633.1000	77.2484
633.0000	77.3561
632.9000	77.4605
632.8000	77.5571
632.7000	77.6492
632.6000	77.7408
632.5000	77.8348
632.4000	77.9104
632.3000	77.9848
632.2000	78.0559
632.1000	78.1165
632.0000	78.1735
631.9000	78.2234
631.8000	78.2609
631.7000	78.2994
631.6000	78.3306
631.5000	78.3571
631.4000	78.3746
631.3000	78.3853
631.2000	78.393
631.1000	78.3906
631.0000	78.3796
630.9000	78.3654
630.8000	78.3464
630.7000	78.3149
630.6000	78.2776
630.5000	78.2392
630.4000	78.1964
630.3000	78.1375
630.2000	78.0802
630.1000	78.0147
630.0000	77.9435
629.9000	77.8669
629.8000	77.787
629.7000	77.6986
629.6000	77.6103
629.5000	77.5159
629.4000	77.4161
629.3000	77.3058
629.2000	77.1985
629.1000	77.0823
629.0000	76.9607
628.9000	76.8386
628.8000	76.7073
628.7000	76.5814
628.6000	76.4447
628.5000	76.3081
628.4000	76.1687
628.3000	76.0293
628.2000	75.8852
628.1000	75.7437
628.0000	75.5942
627.9000	75.4409
627.8000	75.293
627.7000	75.1477
627.6000	74.9927
627.5000	74.8477
627.4000	74.7015
627.3000	74.5516
627.2000	74.4094
627.1000	74.2575
627.0000	74.1176
626.9000	73.9716
626.8000	73.832
626.7000	73.6912
626.6000	73.5482
626.5000	73.4085
626.4000	73.276
626.3000	73.1497
626.2000	73.0241
626.1000	72.8947
626.0000	72.7799
625.9000	72.6629
625.8000	72.5496
625.7000	72.4415
625.6000	72.332
625.5000	72.2375
625.4000	72.1399
625.3000	72.0559
625.2000	71.9726
625.1000	71.8963
625.0000	71.8294
624.9000	71.7653
624.8000	71.7025
624.7000	71.6493
624.6000	71.5975
624.5000	71.5562
624.4000	71.517
624.3000	71.4848
624.2000	71.4618
624.1000	71.4438
624.0000	71.4344
623.9000	71.4321
623.8000	71.4365
623.7000	71.4445
623.6000	71.456
623.5000	71.4727
623.4000	71.5021
623.3000	71.5373
623.2000	71.5795
623.1000	71.6267
623.0000	71.6809
622.9000	71.7417
622.8000	71.8053
622.7000	71.8768
622.6000	71.9528
622.5000	72.0358
622.4000	72.122
622.3000	72.2139
622.2000	72.3116
622.1000	72.4101
622.0000	72.5209
621.9000	72.6338
621.8000	72.7489
621.7000	72.8699
621.6000	72.9949
621.5000	73.1259
621.4000	73.2584
621.3000	73.3962
621.2000	73.5362
621.1000	73.6775
621.0000	73.8211
620.9000	73.9644
620.8000	74.1127
620.7000	74.2608
620.6000	74.4123
620.5000	74.5637
620.4000	74.7109
620.3000	74.8596
620.2000	75.0109
620.1000	75.1603
620.0000	75.3056
619.9000	75.4476
619.8000	75.5911
619.7000	75.7328
619.6000	75.8708
619.5000	76.0164
619.4000	76.1516
619.3000	76.2875
619.2000	76.4192
619.1000	76.5454
619.0000	76.6646
618.9000	76.7862
618.8000	76.9066
618.7000	77.0221
618.6000	77.1245
618.5000	77.2234
618.4000	77.3226
618.3000	77.4175
618.2000	77.5095
618.1000	77.5928
618.0000	77.6762
617.9000	77.7424
617.8000	77.8082
617.7000	77.8672
617.6000	77.923
617.5000	77.9709
617.4000	78.0155
617.3000	78.0484
617.2000	78.0727
617.1000	78.0978
617.0000	78.1175
616.9000	78.1323
616.8000	78.1372
616.7000	78.1333
616.6000	78.1226
616.5000	78.107
616.4000	78.0825
616.3000	78.0558
616.2000	78.018
616.1000	77.9738
616.0000	77.9228
615.9000	77.8654
615.8000	77.8035
615.7000	77.7363
615.6000	77.6649
615.5000	77.5846
615.4000	77.498
615.3000	77.4091
615.2000	77.312
615.1000	77.2097
615.0000	77.1032
614.9000	76.9885
614.8000	76.87
614.7000	76.7465
614.6000	76.6241
614.5000	76.4958
614.4000	76.363
614.3000	76.2276
614.2000	76.086
614.1000	75.945
614.0000	75.8025
613.9000	75.6528
613.8000	75.5056
613.7000	75.3503
613.6000	75.1974
613.5000	75.0456
613.4000	74.8932
613.3000	74.7415
613.2000	74.5901
613.1000	74.4387
613.0000	74.2884
612.9000	74.1393
612.8000	73.992
612.7000	73.8502
612.6000	73.7122
612.5000	73.5734
612.4000	73.432
612.3000	73.2999
612.2000	73.1713
612.1000	73.0434
612.0000	72.9226
611.9000	72.8037
611.8000	72.6852
611.7000	72.5735
611.6000	72.4676
611.5000	72.3654
611.4000	72.2702
611.3000	72.1807
611.2000	72.0974
611.1000	72.0176
611.0000	71.9421
610.9000	71.8744
610.8000	71.817
610.7000	71.759
610.6000	71.7083
610.5000	71.6689
610.4000	71.6334
610.3000	71.6061
610.2000	71.5864
610.1000	71.5742
610.0000	71.5667
609.9000	71.5718
609.8000	71.5791
609.7000	71.5922
609.6000	71.6106
609.5000	71.6396
609.4000	71.6745
609.3000	71.7111
609.2000	71.7563
609.1000	71.8107
609.0000	71.8726
608.9000	71.9363
608.8000	72.0072
608.7000	72.0809
608.6000	72.1655
608.5000	72.2515
608.4000	72.3492
608.3000	72.4444
608.2000	72.549
608.1000	72.6604
608.0000	72.7757
607.9000	72.8923
607.8000	73.011
607.7000	73.1396
607.6000	73.2676
607.5000	73.3989
607.4000	73.5305
607.3000	73.6696
607.2000	73.8131
607.1000	73.9544
607.0000	74.098
606.9000	74.2453
606.8000	74.3894
606.7000	74.5374
606.6000	74.6831
606.5000	74.8298
606.4000	74.9758
606.3000	75.1194
606.2000	75.2669
606.1000	75.4093
606.0000	75.5544
605.9000	75.698
605.8000	75.839
605.7000	75.9784
605.6000	76.1114
605.5000	76.251
605.4000	76.3808
605.3000	76.508
605.2000	76.6289
605.1000	76.7459
605.0000	76.857
604.9000	76.9648
604.8000	77.0667
604.7000	77.1673
604.6000	77.2565
604.5000	77.3448
604.4000	77.4231
604.3000	77.5009
604.2000	77.5726
604.1000	77.6356
604.0000	77.6931
603.9000	77.7389
603.8000	77.778
603.7000	77.8127
603.6000	77.8441
603.5000	77.868
603.4000	77.8857
603.3000	77.8945
603.2000	77.896
603.1000	77.8892
603.0000	77.8794
602.9000	77.8613
602.8000	77.8373
602.7000	77.8047
602.6000	77.7638
602.5000	77.716
602.4000	77.6609
602.3000	77.6003
602.2000	77.5353
602.1000	77.4631
602.0000	77.3808
601.9000	77.2944
601.8000	77.2008
601.7000	77.1041
601.6000	77.0062
601.5000	76.9021
601.4000	76.7898
601.3000	76.6737
601.2000	76.5535
601.1000	76.4292
601.0000	76.2966
600.9000	76.1651
600.8000	76.0292
600.7000	75.8923
600.6000	75.7532
600.5000	75.6084
600.4000	75.4599
600.3000	75.3141
600.2000	75.1682
600.1000	75.0187
600.0000	74.9032
599.9000	74.7518
599.8000	74.6013
599.7000	74.4594
599.6000	74.3096
599.5000	74.1613
599.4000	74.0154
599.3000	73.8729
599.2000	73.7303
599.1000	73.5928
599.0000	73.4579
598.9000	73.3291
598.8000	73.2057
598.7000	73.0794
598.6000	72.9568
598.5000	72.8374
598.4000	72.7257
598.3000	72.6248
598.2000	72.5263
598.1000	72.4271
598.0000	72.3385
597.9000	72.255
597.8000	72.1774
597.7000	72.1079
597.6000	72.0407
597.5000	71.9772
597.4000	71.926
597.3000	71.882
597.2000	71.8383
597.1000	71.8063
597.0000	71.7849
596.9000	71.7725
596.8000	71.7629
596.7000	71.7601
596.6000	71.7646
596.5000	71.7745
596.4000	71.7918
596.3000	71.818
596.2000	71.8502
596.1000	71.8895
596.0000	71.9412
595.9000	72.0003
595.8000	72.0587
595.7000	72.1258
595.6000	72.2025
595.5000	72.2831
595.4000	72.3662
595.3000	72.4567
595.2000	72.552
595.1000	72.6539
595.0000	72.7604
594.9000	72.8786
594.8000	72.9961
594.7000	73.1197
594.6000	73.2454
594.5000	73.3746
594.4000	73.505
594.3000	73.6391
594.2000	73.7768
594.1000	73.9174
594.0000	74.0609
593.9000	74.2072
593.8000	74.3544
593.7000	74.5046
593.6000	74.652
593.5000	74.8013
593.4000	74.9504
593.3000	75.0914
593.2000	75.242
593.1000	75.3876
593.0000	75.5304
592.9000	75.6701
592.8000	75.8104
592.7000	75.95
592.6000	76.0828
592.5000	76.2117
592.4000	76.3373
592.3000	76.4568
592.2000	76.5722
592.1000	76.6842
592.0000	76.7981
591.9000	76.8974
591.8000	76.9938
591.7000	77.0899
591.6000	77.1726
591.5000	77.2513
591.4000	77.3254
591.3000	77.3919
591.2000	77.4574
591.1000	77.5072
591.0000	77.5521
590.9000	77.5944
590.8000	77.625
590.7000	77.6538
590.6000	77.6744
590.5000	77.6817
590.4000	77.6801
590.3000	77.6752
590.2000	77.6653
590.1000	77.6433
590.0000	77.618
589.9000	77.5847
589.8000	77.544
589.7000	77.4991
589.6000	77.4392
589.5000	77.3815
589.4000	77.3169
589.3000	77.24
589.2000	77.1598
589.1000	77.0734
589.0000	76.9826
588.9000	76.8885
588.8000	76.7894
588.7000	76.6857
588.6000	76.5724
588.5000	76.4632
588.4000	76.3384
588.3000	76.2161
588.2000	76.0894
588.1000	75.9577
588.0000	75.8209
587.9000	75.6803
587.8000	75.5419
587.7000	75.4049
587.6000	75.2651
587.5000	75.1194
587.4000	74.9746
587.3000	74.8299
587.2000	74.6848
587.1000	74.5407
587.0000	74.3932
586.9000	74.2437
586.8000	74.104
586.7000	73.9648
586.6000	73.8267
586.5000	73.6884
586.4000	73.5583
586.3000	73.43
586.2000	73.3044
586.1000	73.1806
586.0000	73.0621
585.9000	72.9476
585.8000	72.8368
585.7000	72.7345
585.6000	72.634
585.5000	72.5392
585.4000	72.4538
585.3000	72.3733
585.2000	72.298
585.1000	72.2299
585.0000	72.1696
584.9000	72.1097
584.8000	72.0536
584.7000	72.0143
584.6000	71.9775
584.5000	71.9492
584.4000	71.9224
584.3000	71.9047
584.2000	71.8978
584.1000	71.8958
584.0000	71.9026
583.9000	71.9184
583.8000	71.9409
583.7000	71.9646
583.6000	72.0011
583.5000	72.0391
583.4000	72.0849
583.3000	72.149
583.2000	72.2196
583.1000	72.283
583.0000	72.3611
582.9000	72.4433
582.8000	72.5341
582.7000	72.629
582.6000	72.7291
582.5000	72.8351
582.4000	72.9425
582.3000	73.0548
582.2000	73.1761
582.1000	73.3007
582.0000	73.4277
581.9000	73.5614
581.8000	73.6952
581.7000	73.827
581.6000	73.9628
581.5000	74.1051
581.4000	74.2467
581.3000	74.3852
581.2000	74.5304
581.1000	74.6765
581.0000	74.825
580.9000	74.9653
580.8000	75.1074
580.7000	75.2494
580.6000	75.3857
580.5000	75.5303
580.4000	75.6646
580.3000	75.7969
580.2000	75.9266
580.1000	76.0539
580.0000	76.1794
579.9000	76.2983
579.8000	76.4089
579.7000	76.5225
579.6000	76.625
579.5000	76.7267
579.4000	76.8116
579.3000	76.8996
579.2000	76.9849
579.1000	77.0634
579.0000	77.1334
578.9000	77.1881
578.8000	77.2443
578.7000	77.2919
578.6000	77.3328
578.5000	77.3646
578.4000	77.3876
578.3000	77.4076
578.2000	77.421
578.1000	77.4202
578.0000	77.4182
577.9000	77.4056
577.8000	77.39
577.7000	77.3644
577.6000	77.3334
577.5000	77.2904
577.4000	77.2418
577.3000	77.1887
577.2000	77.1304
577.1000	77.0644
577.0000	76.995
576.9000	76.9148
576.8000	76.8305
576.7000	76.7384
576.6000	76.6443
576.5000	76.5489
576.4000	76.4416
576.3000	76.3333
576.2000	76.2192
576.1000	76.102
576.0000	75.9806
575.9000	75.8561
575.8000	75.7316
575.7000	75.6042
575.6000	75.4666
575.5000	75.3288
575.4000	75.1897
575.3000	75.0545
575.2000	74.9177
575.1000	74.7782
575.0000	74.6393
574.9000	74.4973
574.8000	74.36
574.7000	74.2219
574.6000	74.0858
574.5000	73.9512
574.4000	73.8149
574.3000	73.6813
574.2000	73.5496
574.1000	73.4259
574.0000	73.3048
573.9000	73.1912
573.8000	73.0786
573.7000	72.9709
573.6000	72.8655
573.5000	72.7633
573.4000	72.6681
573.3000	72.5816
573.2000	72.5008
573.1000	72.4249
573.0000	72.3545
572.9000	72.2912
572.8000	72.2329
572.7000	72.1846
572.6000	72.1418
572.5000	72.1078
572.4000	72.0837
572.3000	72.0617
572.2000	72.0472
572.1000	72.042
572.0000	72.0473
571.9000	72.0622
571.8000	72.0829
571.7000	72.1077
571.6000	72.14
571.5000	72.1818
571.4000	72.2321
571.3000	72.2906
571.2000	72.3566
571.1000	72.425
571.0000	72.5031
570.9000	72.5805
570.8000	72.6683
570.7000	72.7624
570.6000	72.8601
570.5000	72.9647
570.4000	73.07
570.3000	73.1849
570.2000	73.3013
570.1000	73.4219
570.0000	73.5483
569.9000	73.6752
569.8000	73.8045
569.7000	73.9336
569.6000	74.0659
569.5000	74.2049
569.4000	74.3419
569.3000	74.4833
569.2000	74.6202
569.1000	74.758
569.0000	74.8983
568.9000	75.0359
568.8000	75.1759
568.7000	75.3072
568.6000	75.4341
568.5000	75.5657
568.4000	75.6923
568.3000	75.8145
568.2000	75.9375
568.1000	76.0545
568.0000	76.1674
567.9000	76.2729
567.8000	76.3752
567.7000	76.4693
567.6000	76.5635
567.5000	76.6481
567.4000	76.7292
567.3000	76.8041
567.2000	76.8696
567.1000	76.9297
567.0000	76.9846
566.9000	77.0284
566.8000	77.0664
566.7000	77.0953
566.6000	77.1145
566.5000	77.1316
566.4000	77.1392
566.3000	77.1438
566.2000	77.1386
566.1000	77.1295
566.0000	77.107
565.9000	77.078
565.8000	77.0396
565.7000	76.9928
565.6000	76.941
565.5000	76.8858
565.4000	76.8216
565.3000	76.7508
565.2000	76.6735
565.1000	76.5905
565.0000	76.507
564.9000	76.411
564.8000	76.3106
564.7000	76.2029
564.6000	76.0942
564.5000	75.9802
564.4000	75.8618
564.3000	75.7382
564.2000	75.6146
564.1000	75.4875
564.0000	75.3595
563.9000	75.2243
563.8000	75.0926
563.7000	74.9591
563.6000	74.8266
563.5000	74.689
563.4000	74.5462
563.3000	74.412
563.2000	74.2802
563.1000	74.1499
563.0000	74.0162
562.9000	73.8811
562.8000	73.7534
562.7000	73.6297
562.6000	73.5075
562.5000	73.3897
562.4000	73.2751
562.3000	73.1652
562.2000	73.057
562.1000	72.9572
562.0000	72.8553
561.9000	72.7672
561.8000	72.6866
561.7000	72.6081
561.6000	72.5319
561.5000	72.4655
561.4000	72.4065
561.3000	72.3571
561.2000	72.3114
561.1000	72.274
561.0000	72.2443
560.9000	72.224
560.8000	72.2091
560.7000	72.2018
560.6000	72.2046
560.5000	72.2071
560.4000	72.2267
560.3000	72.2505
560.2000	72.2806
560.1000	72.316
560.0000	72.3634
559.9000	72.4131
559.8000	72.4682
559.7000	72.5338
559.6000	72.6072
559.5000	72.6867
559.4000	72.7695
559.3000	72.8562
559.2000	72.9485
559.1000	73.053
559.0000	73.1561
558.9000	73.2722
558.8000	73.3831
558.7000	73.5058
558.6000	73.6284
558.5000	73.7522
558.4000	73.8783
558.3000	74.0074
558.2000	74.1428
558.1000	74.2751
558.0000	74.4064
557.9000	74.5422
557.8000	74.679
557.7000	74.8137
557.6000	74.9476
557.5000	75.08
557.4000	75.2122
557.3000	75.3381
557.2000	75.4659
557.1000	75.586
557.0000	75.7044
556.9000	75.8216
556.8000	75.9342
556.7000	76.0438
556.6000	76.1475
556.5000	76.2436
556.4000	76.3405
556.3000	76.4223
556.2000	76.4996
556.1000	76.5723
556.0000	76.642
555.9000	76.7008
555.8000	76.7526
555.7000	76.7966
555.6000	76.8334
555.5000	76.8616
555.4000	76.8838
555.3000	76.8961
555.2000	76.9036
555.1000	76.9037
555.0000	76.8916
554.9000	76.8741
554.8000	76.8448
554.7000	76.8116
554.6000	76.7703
554.5000	76.7246
554.4000	76.665
554.3000	76.6013
554.2000	76.5326
554.1000	76.4566
554.0000	76.3737
553.9000	76.2864
553.8000	76.193
553.7000	76.0952
553.6000	75.9901
553.5000	75.8791
553.4000	75.768
553.3000	75.6512
553.2000	75.5319
553.1000	75.4122
553.0000	75.289
552.9000	75.1626
552.8000	75.0329
552.7000	74.8983
552.6000	74.77
552.5000	74.6353
552.4000	74.504
552.3000	74.3699
552.2000	74.2356
552.1000	74.1046
552.0000	73.9754
551.9000	73.8493
551.8000	73.7267
551.7000	73.6054
551.6000	73.4889
551.5000	73.3743
551.4000	73.2652
551.3000	73.1589
551.2000	73.0583
551.1000	72.9653
551.0000	72.8758
550.9000	72.7966
550.8000	72.7201
550.7000	72.6511
550.6000	72.5899
550.5000	72.5316
550.4000	72.4804
550.3000	72.4409
550.2000	72.4022
550.1000	72.3789
550.0000	72.3598
549.9000	72.3489
549.8000	72.3436
549.7000	72.3473
549.6000	72.3596
549.5000	72.3802
549.4000	72.4056
549.3000	72.4392
549.2000	72.4817
549.1000	72.5303
549.0000	72.5842
548.9000	72.6509
548.8000	72.7259
548.7000	72.7972
548.6000	72.8832
548.5000	72.9686
548.4000	73.0609
548.3000	73.163
548.2000	73.2662
548.1000	73.3722
548.0000	73.4869
547.9000	73.6042
547.8000	73.7192
547.7000	73.8404
547.6000	73.9635
547.5000	74.0938
547.4000	74.2211
547.3000	74.3505
547.2000	74.4773
547.1000	74.6078
547.0000	74.7329
546.9000	74.8647
546.8000	74.9876
546.7000	75.1093
546.6000	75.2326
546.5000	75.357
546.4000	75.4734
546.3000	75.5826
546.2000	75.696
546.1000	75.8004
546.0000	75.8999
545.9000	75.9928
545.8000	76.082
545.7000	76.163
545.6000	76.236
545.5000	76.306
545.4000	76.3693
545.3000	76.4221
545.2000	76.4748
545.1000	76.5162
545.0000	76.5496
544.9000	76.575
544.8000	76.5938
544.7000	76.6068
544.6000	76.6111
544.5000	76.6024
544.4000	76.5922
544.3000	76.573
544.2000	76.5479
544.1000	76.5149
544.0000	76.4753
543.9000	76.4267
543.8000	76.3699
543.7000	76.307
543.6000	76.2384
543.5000	76.1611
543.4000	76.0836
543.3000	75.9949
543.2000	75.9063
543.1000	75.8111
543.0000	75.7064
542.9000	75.604
542.8000	75.4947
542.7000	75.3808
542.6000	75.2656
542.5000	75.1442
542.4000	75.0239
542.3000	74.9017
542.2000	74.7802
542.1000	74.656
542.0000	74.5304
541.9000	74.4108
541.8000	74.2832
541.7000	74.1594
541.6000	74.0332
541.5000	73.9113
541.4000	73.7987
541.3000	73.6822
541.2000	73.5681
541.1000	73.4561
541.0000	73.35
540.9000	73.2518
540.8000	73.1593
540.7000	73.0703
540.6000	72.9862
540.5000	72.9091
540.4000	72.8379
540.3000	72.7664
540.2000	72.7045
540.1000	72.6527
540.0000	72.6054
539.9000	72.5653
539.8000	72.5308
539.7000	72.5122
539.6000	72.4941
539.5000	72.4865
539.4000	72.4852
539.3000	72.4933
539.2000	72.5069
539.1000	72.5295
539.0000	72.5568
538.9000	72.5916
538.8000	72.6344
538.7000	72.688
538.6000	72.7482
538.5000	72.8113
538.4000	72.885
538.3000	72.9637
538.2000	73.0449
538.1000	73.1288
538.0000	73.2271
537.9000	73.3264
537.8000	73.4296
537.7000	73.5335
537.6000	73.6438
537.5000	73.7548
537.4000	73.8738
537.3000	73.9897
537.2000	74.1077
537.1000	74.2282
537.0000	74.35
536.9000	74.4731
536.8000	74.5938
536.7000	74.7129
536.6000	74.8333
536.5000	74.9538
536.4000	75.0691
536.3000	75.1826
536.2000	75.2929
536.1000	75.4054
536.0000	75.5069
535.9000	75.6063
535.8000	75.6995
535.7000	75.7922
535.6000	75.8801
535.5000	75.9579
535.4000	76.0324
535.3000	76.0975
535.2000	76.159
535.1000	76.2141
535.0000	76.2617
534.9000	76.301
534.8000	76.3305
534.7000	76.3582
534.6000	76.376
534.5000	76.3792
534.4000	76.3809
534.3000	76.3772
534.2000	76.3634
534.1000	76.342
534.0000	76.3129
533.9000	76.2777
533.8000	76.2318
533.7000	76.1835
533.6000	76.1258
533.5000	76.0629
533.4000	75.9959
533.3000	75.9195
533.2000	75.8382
533.1000	75.7484
533.0000	75.6539
532.9000	75.5585
532.8000	75.4578
532.7000	75.3523
532.6000	75.246
532.5000	75.1359
532.4000	75.0214
532.3000	74.9067
532.2000	74.7935
532.1000	74.6717
532.0000	74.553
531.9000	74.4314
531.8000	74.3083
531.7000	74.1909
531.6000	74.076
531.5000	73.9596
531.4000	73.8462
531.3000	73.7364
531.2000	73.6318
531.1000	73.5268
531.0000	73.428
530.9000	73.3325
530.8000	73.2395
530.7000	73.1521
530.6000	73.0708
530.5000	73
530.4000	72.9305
530.3000	72.87
530.2000	72.8109
530.1000	72.7589
530.0000	72.7135
529.9000	72.6818
529.8000	72.6565
529.7000	72.6373
529.6000	72.6222
529.5000	72.612
529.4000	72.6123
529.3000	72.6214
529.2000	72.6365
529.1000	72.6563
529.0000	72.6868
528.9000	72.7257
528.8000	72.7731
528.7000	72.8195
528.6000	72.8804
528.5000	72.9482
528.4000	73.0225
528.3000	73.0923
528.2000	73.1774
528.1000	73.2616
528.0000	73.3546
527.9000	73.4557
527.8000	73.5509
527.7000	73.649
527.6000	73.7537
527.5000	73.8664
527.4000	73.9722
527.3000	74.0828
527.2000	74.1938
527.1000	74.3097
527.0000	74.4226
526.9000	74.5311
526.8000	74.6418
526.7000	74.7523
526.6000	74.857
526.5000	74.9649
526.4000	75.0654
526.3000	75.1644
526.2000	75.2645
526.1000	75.3613
526.0000	75.4552
525.9000	75.5381
525.8000	75.6215
525.7000	75.6904
525.6000	75.7587
525.5000	75.8211
525.4000	75.878
525.3000	75.9333
525.2000	75.9757
525.1000	76.014
525.0000	76.0409
524.9000	76.0631
524.8000	76.0779
524.7000	76.0812
524.6000	76.0803
524.5000	76.0706
524.4000	76.0517
524.3000	76.03
524.2000	75.9971
524.1000	75.9613
524.0000	75.9181
523.9000	75.8667
523.8000	75.8084
523.7000	75.742
523.6000	75.6731
523.5000	75.5949
523.4000	75.5143
523.3000	75.4251
523.2000	75.3384
523.1000	75.2465
523.0000	75.1467
522.9000	75.0444
522.8000	74.9386
522.7000	74.8322
522.6000	74.7243
522.5000	74.6167
522.4000	74.5035
522.3000	74.3934
522.2000	74.2849
522.1000	74.1739
522.0000	74.0615
521.9000	73.9556
521.8000	73.8538
521.7000	73.7487
521.6000	73.6429
521.5000	73.5484
521.4000	73.4565
521.3000	73.3689
521.2000	73.2867
521.1000	73.2038
521.0000	73.1324
520.9000	73.0611
520.8000	72.9966
520.7000	72.9409
520.6000	72.8874
520.5000	72.8477
520.4000	72.8147
520.3000	72.7833
520.2000	72.7597
520.1000	72.7475
520.0000	72.6604
519.9000	72.665
519.8000	72.6733
519.7000	72.6921
519.6000	72.7151
519.5000	72.7488
519.4000	72.7878
519.3000	72.8266
519.2000	72.8791
519.1000	72.9363
519.0000	73.0025
518.9000	73.0732
518.8000	73.1458
518.7000	73.2255
518.6000	73.3062
518.5000	73.3966
518.4000	73.4891
518.3000	73.5854
518.2000	73.6876
518.1000	73.7894
518.0000	73.893
517.9000	73.9953
517.8000	74.1008
517.7000	74.2095
517.6000	74.3115
517.5000	74.4179
517.4000	74.5214
517.3000	74.6237
517.2000	74.7298
517.1000	74.8251
517.0000	74.9219
516.9000	75.019
516.8000	75.1128
516.7000	75.1975
516.6000	75.2688
516.5000	75.3441
516.4000	75.4174
516.3000	75.4814
516.2000	75.5387
516.1000	75.5947
516.0000	75.6461
515.9000	75.6872
515.8000	75.7236
515.7000	75.747
515.6000	75.7624
515.5000	75.7769
515.4000	75.7831
515.3000	75.7781
515.2000	75.7652
515.1000	75.7476
515.0000	75.7264
514.9000	75.6938
514.8000	75.6549
514.7000	75.6111
514.6000	75.5624
514.5000	75.5028
514.4000	75.4331
514.3000	75.3631
514.2000	75.2882
514.1000	75.2118
514.0000	75.1279
513.9000	75.0383
513.8000	74.945
513.7000	74.8482
513.6000	74.7473
513.5000	74.6511
513.4000	74.5529
513.3000	74.4493
513.2000	74.3444
513.1000	74.2427
513.0000	74.136
512.9000	74.0301
512.8000	73.9313
512.7000	73.8303
512.6000	73.7276
512.5000	73.6316
512.4000	73.544
512.3000	73.4575
512.2000	73.3712
512.1000	73.2933
512.0000	73.2202
511.9000	73.143
511.8000	73.077
511.7000	73.0174
511.6000	72.963
511.5000	72.9106
511.4000	72.8694
511.3000	72.8378
511.2000	72.8121
511.1000	72.7948
511.0000	72.7832
510.9000	72.7768
510.8000	72.7713
510.7000	72.7768
510.6000	72.7956
510.5000	72.8181
510.4000	72.8439
510.3000	72.8805
510.2000	72.9214
510.1000	72.9701
510.0000	73.0296
509.9000	73.0907
509.8000	73.1565
509.7000	73.2257
509.6000	73.3019
509.5000	73.3832
509.4000	73.465
509.3000	73.5498
509.2000	73.6428
509.1000	73.7363
509.0000	73.8275
508.9000	73.9236
508.8000	74.0274
508.7000	74.1279
508.6000	74.2276
508.5000	74.3253
508.4000	74.4199
508.3000	74.5212
508.2000	74.6131
508.1000	74.7063
508.0000	74.7925
507.9000	74.8763
507.8000	74.9588
507.7000	75.0377
507.6000	75.1101
507.5000	75.1786
507.4000	75.2418
507.3000	75.2956
507.2000	75.3413
507.1000	75.3826
507.0000	75.4202
506.9000	75.4533
506.8000	75.4755
506.7000	75.4882
506.6000	75.5011
506.5000	75.5009
506.4000	75.4956
506.3000	75.481
506.2000	75.4626
506.1000	75.4351
506.0000	75.3961
505.9000	75.3559
505.8000	75.3107
505.7000	75.2568
505.6000	75.1981
505.5000	75.1338
505.4000	75.0609
505.3000	74.985
505.2000	74.9073
505.1000	74.8233
505.0000	74.7378
504.9000	74.6478
504.8000	74.5566
504.7000	74.4655
504.6000	74.3704
504.5000	74.2746
504.4000	74.1826
504.3000	74.0933
504.2000	73.9995
504.1000	73.908
504.0000	73.8155
503.9000	73.7263
503.8000	73.6424
503.7000	73.5567
503.6000	73.4771
503.5000	73.3982
503.4000	73.3217
503.3000	73.2602
503.2000	73.1972
503.1000	73.1368
503.0000	73.0871
502.9000	73.0424
502.8000	73.0035
502.7000	72.9616
502.6000	72.933
502.5000	72.9137
502.4000	72.901
502.3000	72.8916
502.2000	72.8913
502.1000	72.8977
502.0000	72.9125
501.9000	72.9306
501.8000	72.9606
501.7000	72.9932
501.6000	73.0348
501.5000	73.0826
501.4000	73.1284
501.3000	73.1846
501.2000	73.2435
501.1000	73.3097
501.0000	73.3776
500.9000	73.45
500.8000	73.5288
500.7000	73.6138
500.6000	73.6971
500.5000	73.7794
500.4000	73.8633
500.3000	73.9524
500.2000	74.0397
500.1000	74.1265
500.0000	74.2129
499.9000	74.2982
499.8000	74.3878
499.7000	74.471
499.6000	74.5542
499.5000	74.634
499.4000	74.7133
499.3000	74.787
499.2000	74.8513
499.1000	74.9153
499.0000	74.9738
498.9000	75.0287
498.8000	75.0753
498.7000	75.1179
498.6000	75.1528
498.5000	75.1779
498.4000	75.2011
498.3000	75.2162
498.2000	75.2252
498.1000	75.2305
498.0000	75.2293
497.9000	75.2183
497.8000	75.2016
497.7000	75.1743
497.6000	75.147
497.5000	75.1111
497.4000	75.0675
497.3000	75.0187
497.2000	74.9657
497.1000	74.9073
497.0000	74.8429
496.9000	74.777
496.8000	74.7055
496.7000	74.6324
496.6000	74.5527
496.5000	74.4677
496.4000	74.3795
496.3000	74.2964
496.2000	74.2089
496.1000	74.1281
496.0000	74.04
495.9000	73.9508
495.8000	73.8657
495.7000	73.7839
495.6000	73.7039
495.5000	73.6289
495.4000	73.5539
495.3000	73.4811
495.2000	73.4117
495.1000	73.3436
495.0000	73.2828
494.9000	73.2254
494.8000	73.1767
494.7000	73.1279
494.6000	73.0875
494.5000	73.0506
494.4000	73.0227
494.3000	72.9994
494.2000	72.9845
494.1000	72.9768
494.0000	72.9699
493.9000	72.9701
493.8000	72.9829
493.7000	72.9958
493.6000	73.0168
493.5000	73.0484
493.4000	73.0795
493.3000	73.122
493.2000	73.1689
493.1000	73.2266
493.0000	73.2785
492.9000	73.3373
492.8000	73.4017
492.7000	73.4704
492.6000	73.5394
492.5000	73.6083
492.4000	73.6826
492.3000	73.7602
492.2000	73.8363
492.1000	73.9191
492.0000	73.9991
491.9000	74.0766
491.8000	74.157
491.7000	74.2376
491.6000	74.3076
491.5000	74.377
491.4000	74.4547
491.3000	74.5194
491.2000	74.5826
491.1000	74.6436
491.0000	74.6996
490.9000	74.7518
490.8000	74.8015
490.7000	74.843
490.6000	74.8781
490.5000	74.9079
490.4000	74.9333
490.3000	74.9536
490.2000	74.9674
490.1000	74.9704
490.0000	74.9761
489.9000	74.97
489.8000	74.953
489.7000	74.9391
489.6000	74.9161
489.5000	74.885
489.4000	74.8484
489.3000	74.8095
489.2000	74.7619
489.1000	74.7111
489.0000	74.6548
488.9000	74.5901
488.8000	74.5262
488.7000	74.4581
488.6000	74.3919
488.5000	74.3202
488.4000	74.2471
488.3000	74.1738
488.2000	74.1006
488.1000	74.024
488.0000	73.9455
487.9000	73.8745
487.8000	73.8007
487.7000	73.7259
487.6000	73.6565
487.5000	73.5862
487.4000	73.52
487.3000	73.4599
487.2000	73.3991
487.1000	73.3419
487.0000	73.2868
486.9000	73.2388
486.8000	73.19
486.7000	73.152
486.6000	73.1175
486.5000	73.0894
486.4000	73.0691
486.3000	73.0509
486.2000	73.0422
486.1000	73.0366
486.0000	73.0379
485.9000	73.044
485.8000	73.0578
485.7000	73.0752
485.6000	73.0971
485.5000	73.1275
485.4000	73.1617
485.3000	73.2007
485.2000	73.2489
485.1000	73.2941
485.0000	73.3475
484.9000	73.4025
484.8000	73.4603
484.7000	73.5195
484.6000	73.5799
484.5000	73.6453
484.4000	73.7122
484.3000	73.7797
484.2000	73.8474
484.1000	73.9155
484.0000	73.9842
483.9000	74.052
483.8000	74.1185
483.7000	74.1856
483.6000	74.2453
483.5000	74.307
483.4000	74.3621
483.3000	74.4164
483.2000	74.4664
483.1000	74.5108
483.0000	74.554
482.9000	74.5955
482.8000	74.6254
482.7000	74.6543
482.6000	74.6728
482.5000	74.6895
482.4000	74.7024
482.3000	74.7059
482.2000	74.7019
482.1000	74.6932
482.0000	74.6878
481.9000	74.6696
481.8000	74.6451
481.7000	74.6155
481.6000	74.5807
481.5000	74.5429
481.4000	74.4965
481.3000	74.4455
481.2000	74.3935
481.1000	74.34
481.0000	74.2841
480.9000	74.2232
480.8000	74.159
480.7000	74.0945
480.6000	74.0292
480.5000	73.9641
480.4000	73.892
480.3000	73.8242
480.2000	73.7548
480.1000	73.6871
480.0000	73.6214
479.9000	73.5573
479.8000	73.4996
479.7000	73.4435
479.6000	73.3861
479.5000	73.3365
479.4000	73.2918
479.3000	73.2503
479.2000	73.2079
479.1000	73.1737
479.0000	73.1444
478.9000	73.118
478.8000	73.0972
478.7000	73.0807
478.6000	73.0744
478.5000	73.0758
478.4000	73.0797
478.3000	73.0874
478.2000	73.0988
478.1000	73.1106
478.0000	73.139
477.9000	73.1627
477.8000	73.1925
477.7000	73.2317
477.6000	73.28
477.5000	73.3222
477.4000	73.3702
477.3000	73.4187
477.2000	73.4747
477.1000	73.5286
477.0000	73.5835
476.9000	73.6385
476.8000	73.6955
476.7000	73.7546
476.6000	73.815
476.5000	73.8778
476.4000	73.9328
476.3000	73.9852
476.2000	74.0422
476.1000	74.0916
476.0000	74.1384
475.9000	74.1856
475.8000	74.2316
475.7000	74.2702
475.6000	74.2993
475.5000	74.328
475.4000	74.3584
475.3000	74.3814
475.2000	74.398
475.1000	74.4089
475.0000	74.4208
474.9000	74.4265
474.8000	74.4255
474.7000	74.4233
474.6000	74.4054
474.5000	74.3874
474.4000	74.3627
474.3000	74.3358
474.2000	74.3026
474.1000	74.2735
474.0000	74.2388
473.9000	74.2003
473.8000	74.1562
473.7000	74.1064
473.6000	74.0599
473.5000	74.0072
473.4000	73.9505
473.3000	73.8956
473.2000	73.834
473.1000	73.7759
473.0000	73.722
472.9000	73.6656
472.8000	73.6158
472.7000	73.5617
472.6000	73.5114
472.5000	73.4584
472.4000	73.408
472.3000	73.3623
472.2000	73.3162
472.1000	73.2782
472.0000	73.2408
471.9000	73.2083
471.8000	73.1773
471.7000	73.1499
471.6000	73.1339
471.5000	73.12
471.4000	73.1104
471.3000	73.1063
471.2000	73.1017
471.1000	73.1052
471.0000	73.1122
470.9000	73.1256
470.8000	73.1476
470.7000	73.1718
470.6000	73.1965
470.5000	73.224
470.4000	73.2574
470.3000	73.3001
470.2000	73.341
470.1000	73.3827
470.0000	73.4273
469.9000	73.4704
469.8000	73.5155
469.7000	73.5644
469.6000	73.6154
469.5000	73.6671
469.4000	73.7159
469.3000	73.7629
469.2000	73.8067
469.1000	73.8495
469.0000	73.8986
468.9000	73.944
468.8000	73.984
468.7000	74.0133
468.6000	74.0439
468.5000	74.0725
468.4000	74.0997
468.3000	74.1286
468.2000	74.1483
468.1000	74.1632
468.0000	74.1686
467.9000	74.172
467.8000	74.1732
467.7000	74.1729
467.6000	74.166
467.5000	74.1536
467.4000	74.1333
467.3000	74.1106
467.2000	74.0883
467.1000	74.0648
467.0000	74.0385
466.9000	74.002
466.8000	73.964
466.7000	73.9197
466.6000	73.8785
466.5000	73.832
466.4000	73.7896
466.3000	73.7421
466.2000	73.696
466.1000	73.6396
466.0000	73.5907
465.9000	73.5427
465.8000	73.499
465.7000	73.4532
465.6000	73.4077
465.5000	73.3623
465.4000	73.3183
465.3000	73.2821
465.2000	73.2474
465.1000	73.2136
465.0000	73.184
464.9000	73.1611
464.8000	73.1398
464.7000	73.121
464.6000	73.1022
464.5000	73.0967
464.4000	73.0903
464.3000	73.0898
464.2000	73.0894
464.1000	73.0947
464.0000	73.1026
463.9000	73.1166
463.8000	73.1357
463.7000	73.156
463.6000	73.1839
463.5000	73.2118
463.4000	73.2419
463.3000	73.2717
463.2000	73.3031
463.1000	73.3413
463.0000	73.3838
462.9000	73.426
462.8000	73.4663
462.7000	73.507
462.6000	73.5456
462.5000	73.589
462.4000	73.6272
462.3000	73.6669
462.2000	73.7062
462.1000	73.7443
462.0000	73.7757
461.9000	73.8062
461.8000	73.8327
461.7000	73.8591
461.6000	73.8836
461.5000	73.9057
461.4000	73.9176
461.3000	73.927
461.2000	73.9374
461.1000	73.941
461.0000	73.9448
460.9000	73.9364
460.8000	73.9332
460.7000	73.9226
460.6000	73.9046
460.5000	73.8875
460.4000	73.8613
460.3000	73.8372
460.2000	73.813
460.1000	73.7803
460.0000	73.748
459.9000	73.7094
459.8000	73.6754
459.7000	73.6355
459.6000	73.5961
459.5000	73.5586
459.4000	73.5208
459.3000	73.4877
459.2000	73.4454
459.1000	73.4056
459.0000	73.3706
458.9000	73.333
458.8000	73.3015
458.7000	73.2703
458.6000	73.241
458.5000	73.2169
458.4000	73.1948
458.3000	73.1768
458.2000	73.1596
458.1000	73.1493
458.0000	73.1376
457.9000	73.129
457.8000	73.1255
457.7000	73.1193
457.6000	73.1222
457.5000	73.1303
457.4000	73.135
457.3000	73.1484
457.2000	73.1645
457.1000	73.183
457.0000	73.2001
456.9000	73.2251
456.8000	73.2469
456.7000	73.2736
456.6000	73.3032
456.5000	73.3322
456.4000	73.3644
456.3000	73.3952
456.2000	73.4231
456.1000	73.4536
456.0000	73.4891
455.9000	73.5182
455.8000	73.55
455.7000	73.5744
455.6000	73.6013
455.5000	73.63
455.4000	73.6524
455.3000	73.6714
455.2000	73.6906
455.1000	73.7019
455.0000	73.7138
454.9000	73.7226
454.8000	73.7311
454.7000	73.7322
454.6000	73.7321
454.5000	73.737
454.4000	73.7294
454.3000	73.7181
454.2000	73.7052
454.1000	73.6947
454.0000	73.6737
453.9000	73.6493
453.8000	73.6299
453.7000	73.6029
453.6000	73.5765
453.5000	73.5536
453.4000	73.5229
453.3000	73.4958
453.2000	73.4641
453.1000	73.4353
453.0000	73.404
452.9000	73.368
452.8000	73.3382
452.7000	73.3136
452.6000	73.2853
452.5000	73.2598
452.4000	73.2383
452.3000	73.2166
452.2000	73.1971
452.1000	73.1803
452.0000	73.1636
451.9000	73.1485
451.8000	73.1404
451.7000	73.131
451.6000	73.124
451.5000	73.1257
451.4000	73.1248
451.3000	73.1267
451.2000	73.1344
451.1000	73.1415
451.0000	73.1547
450.9000	73.1672
450.8000	73.1813
450.7000	73.1998
450.6000	73.22
450.5000	73.2419
450.4000	73.2685
450.3000	73.2924
450.2000	73.3153
450.1000	73.3397
450.0000	73.3637
449.9000	73.3862
449.8000	73.4145
449.7000	73.4387
449.6000	73.4623
449.5000	73.4864
449.4000	73.5072
449.3000	73.5293
449.2000	73.5482
449.1000	73.5567
449.0000	73.5667
448.9000	73.5744
448.8000	73.5761
448.7000	73.5792
448.6000	73.5806
448.5000	73.579
448.4000	73.5755
448.3000	73.5706
448.2000	73.5578
448.1000	73.546
448.0000	73.5235
447.9000	73.5023
447.8000	73.4821
447.7000	73.4593
447.6000	73.4344
447.5000	73.4136
447.4000	73.3895
447.3000	73.3627
447.2000	73.3315
447.1000	73.2989
447.0000	73.2695
446.9000	73.2374
446.8000	73.2057
446.7000	73.1732
446.6000	73.1504
446.5000	73.1264
446.4000	73.1043
446.3000	73.0878
446.2000	73.0696
446.1000	73.0502
446.0000	73.0371
445.9000	73.0248
445.8000	73.0151
445.7000	73.0065
445.6000	73.0063
445.5000	73.0084
445.4000	73.009
445.3000	73.0155
445.2000	73.0276
445.1000	73.0432
445.0000	73.0546
444.9000	73.0663
444.8000	73.088
444.7000	73.1028
444.6000	73.1215
444.5000	73.1432
444.4000	73.1648
444.3000	73.1874
444.2000	73.2082
444.1000	73.2342
444.0000	73.2616
443.9000	73.2865
443.8000	73.3138
443.7000	73.337
443.6000	73.3596
443.5000	73.3755
443.4000	73.3896
443.3000	73.4077
443.2000	73.4147
443.1000	73.4229
443.0000	73.4265
442.9000	73.4289
442.8000	73.4276
442.7000	73.4219
442.6000	73.4132
442.5000	73.4041
442.4000	73.3851
442.3000	73.3633
442.2000	73.3403
442.1000	73.3167
442.0000	73.2867
441.9000	73.2566
441.8000	73.224
441.7000	73.19
441.6000	73.1575
441.5000	73.126
441.4000	73.0993
441.3000	73.0658
441.2000	73.0272
441.1000	72.9994
441.0000	72.9685
440.9000	72.9353
440.8000	72.9106
440.7000	72.8872
440.6000	72.8613
440.5000	72.8391
440.4000	72.8193
440.3000	72.8065
440.2000	72.8018
440.1000	72.7946
440.0000	72.7878
439.9000	72.78
439.8000	72.7772
439.7000	72.7815
439.6000	72.7943
439.5000	72.801
439.4000	72.8142
439.3000	72.8314
439.2000	72.85
439.1000	72.8703
439.0000	72.8909
438.9000	72.9127
438.8000	72.9412
438.7000	72.9605
438.6000	72.9834
438.5000	73.0068
438.4000	73.0312
438.3000	73.0609
438.2000	73.0832
438.1000	73.1034
438.0000	73.1206
437.9000	73.1397
437.8000	73.1548
437.7000	73.1713
437.6000	73.1831
437.5000	73.1928
437.4000	73.2007
437.3000	73.2024
437.2000	73.197
437.1000	73.1968
437.0000	73.188
436.9000	73.1785
436.8000	73.1625
436.7000	73.1425
436.6000	73.1191
436.5000	73.0967
436.4000	73.0714
436.3000	73.0433
436.2000	73.0118
436.1000	72.9751
436.0000	72.9316
435.9000	72.8946
435.8000	72.8548
435.7000	72.8208
435.6000	72.7832
435.5000	72.7415
435.4000	72.7058
435.3000	72.6714
435.2000	72.6438
435.1000	72.6137
435.0000	72.585
434.9000	72.5579
434.8000	72.5365
434.7000	72.5148
434.6000	72.4984
434.5000	72.4877
434.4000	72.4873
434.3000	72.4835
434.2000	72.4849
434.1000	72.4846
434.0000	72.493
433.9000	72.5101
433.8000	72.524
433.7000	72.5396
433.6000	72.5574
433.5000	72.5807
433.4000	72.6106
433.3000	72.6347
433.2000	72.6639
433.1000	72.6951
433.0000	72.7313
432.9000	72.7664
432.8000	72.7934
432.7000	72.818
432.6000	72.8451
432.5000	72.8751
432.4000	72.9002
432.3000	72.9192
432.2000	72.9325
432.1000	72.9496
432.0000	72.9611
431.9000	72.9673
431.8000	72.9709
431.7000	72.9734
431.6000	72.9665
431.5000	72.9557
431.4000	72.9366
431.3000	72.9129
431.2000	72.8907
431.1000	72.8671
431.0000	72.8347
430.9000	72.7963
430.8000	72.7543
430.7000	72.7153
430.6000	72.6763
430.5000	72.6301
430.4000	72.5864
430.3000	72.5411
430.2000	72.4922
430.1000	72.4499
430.0000	72.4037
429.9000	72.3594
429.8000	72.3207
429.7000	72.2824
429.6000	72.2463
429.5000	72.2138
429.4000	72.1852
429.3000	72.1611
429.2000	72.1478
429.1000	72.1325
429.0000	72.1193
428.9000	72.1152
428.8000	72.116
428.7000	72.1179
428.6000	72.1281
428.5000	72.1375
428.4000	72.1538
428.3000	72.177
428.2000	72.2019
428.1000	72.2301
428.0000	72.2616
427.9000	72.293
427.8000	72.3283
427.7000	72.3647
427.6000	72.399
427.5000	72.4331
427.4000	72.4709
427.3000	72.5024
427.2000	72.5337
427.1000	72.5634
427.0000	72.5916
426.9000	72.6126
426.8000	72.6321
426.7000	72.6484
426.6000	72.6611
426.5000	72.6663
426.4000	72.666
426.3000	72.6647
426.2000	72.655
426.1000	72.6456
426.0000	72.6294
425.9000	72.6089
425.8000	72.5899
425.7000	72.5671
425.6000	72.5371
425.5000	72.5054
425.4000	72.4717
425.3000	72.4418
425.2000	72.4078
425.1000	72.3706
425.0000	72.3318
424.9000	72.3005
424.8000	72.2622
424.7000	72.2294
424.6000	72.2007
424.5000	72.1706
424.4000	72.1426
424.3000	72.1207
424.2000	72.0963
424.1000	72.0756
424.0000	72.0614
423.9000	72.0535
423.8000	72.0456
423.7000	72.0446
423.6000	72.0477
423.5000	72.059
423.4000	72.0755
423.3000	72.0893
423.2000	72.1166
423.1000	72.1432
423.0000	72.1711
422.9000	72.2018
422.8000	72.2397
422.7000	72.2771
422.6000	72.3162
422.5000	72.3541
422.4000	72.3931
422.3000	72.4359
422.2000	72.473
422.1000	72.5108
422.0000	72.5458
421.9000	72.5764
421.8000	72.5996
421.7000	72.6233
421.6000	72.6431
421.5000	72.6566
421.4000	72.6676
421.3000	72.6741
421.2000	72.669
421.1000	72.6646
421.0000	72.6505
420.9000	72.6352
420.8000	72.6121
420.7000	72.5766
420.6000	72.5458
420.5000	72.5067
420.4000	72.4715
420.3000	72.4296
420.2000	72.3821
420.1000	72.3365
420.0000	72.172
419.9000	72.1166
419.8000	72.065
419.7000	72.0115
419.6000	71.9639
419.5000	71.9159
419.4000	71.8646
419.3000	71.8233
419.2000	71.7892
419.1000	71.757
419.0000	71.7342
418.9000	71.718
418.8000	71.7038
418.7000	71.7026
418.6000	71.7002
418.5000	71.6981
418.4000	71.7057
418.3000	71.7161
418.2000	71.7253
418.1000	71.7485
418.0000	71.7752
417.9000	71.808
417.8000	71.8453
417.7000	71.8758
417.6000	71.9098
417.5000	71.9444
417.4000	71.9813
417.3000	72.0144
417.2000	72.0486
417.1000	72.0779
417.0000	72.1058
416.9000	72.1332
416.8000	72.1579
416.7000	72.1725
416.6000	72.1915
416.5000	72.2004
416.4000	72.199
416.3000	72.1915
416.2000	72.181
416.1000	72.1719
416.0000	72.1551
415.9000	72.1282
415.8000	72.0992
415.7000	72.0678
415.6000	72.0287
415.5000	71.984
415.4000	71.9386
415.3000	71.891
415.2000	71.8363
415.1000	71.7922
415.0000	71.7436
414.9000	71.6925
414.8000	71.6491
414.7000	71.6036
414.6000	71.5623
414.5000	71.5215
414.4000	71.4847
414.3000	71.456
414.2000	71.4314
414.1000	71.4133
414.0000	71.4052
413.9000	71.3988
413.8000	71.4003
413.7000	71.4075
413.6000	71.4181
413.5000	71.4314
413.4000	71.4498
413.3000	71.4788
413.2000	71.5049
413.1000	71.5413
413.0000	71.5836
412.9000	71.6201
412.8000	71.6597
412.7000	71.7066
412.6000	71.7437
412.5000	71.7805
412.4000	71.814
412.3000	71.8505
412.2000	71.8791
412.1000	71.908
412.0000	71.9351
411.9000	71.9546
411.8000	71.9688
411.7000	71.9792
411.6000	71.9852
411.5000	71.9782
411.4000	71.9648
411.3000	71.951
411.2000	71.93
411.1000	71.9043
411.0000	71.8751
410.9000	71.8454
410.8000	71.804
410.7000	71.7609
410.6000	71.7177
410.5000	71.6715
410.4000	71.6218
410.3000	71.5787
410.2000	71.5328
410.1000	71.4893
410.0000	71.4482
409.9000	71.4124
409.8000	71.3796
409.7000	71.3513
409.6000	71.3268
409.5000	71.3047
409.4000	71.2941
409.3000	71.2861
409.2000	71.2895
409.1000	71.2948
409.0000	71.3133
408.9000	71.3242
408.8000	71.3541
408.7000	71.3819
408.6000	71.4183
408.5000	71.4471
408.4000	71.4799
408.3000	71.5203
408.2000	71.5545
408.1000	71.5951
408.0000	71.6353
407.9000	71.6711
407.8000	71.7024
407.7000	71.7241
407.6000	71.747
407.5000	71.7646
407.4000	71.7684
407.3000	71.7808
407.2000	71.7746
407.1000	71.7636
407.0000	71.7443
406.9000	71.7277
406.8000	71.7036
406.7000	71.671
406.6000	71.6324
406.5000	71.5837
406.4000	71.5328
406.3000	71.4839
406.2000	71.4301
406.1000	71.382
406.0000	71.3332
405.9000	71.2882
405.8000	71.2438
405.7000	71.1964
405.6000	71.1516
405.5000	71.1164
405.4000	71.0845
405.3000	71.0608
405.2000	71.0377
405.1000	71.022
405.0000	71.0146
404.9000	71.0221
404.8000	71.0327
404.7000	71.0414
404.6000	71.0678
404.5000	71.0961
404.4000	71.1243
404.3000	71.1581
404.2000	71.1956
404.1000	71.2398
404.0000	71.2858
403.9000	71.3277
403.8000	71.3691
403.7000	71.4077
403.6000	71.4521
403.5000	71.4899
403.4000	71.5259
403.3000	71.5502
403.2000	71.5779
403.1000	71.5976
403.0000	71.6053
402.9000	71.6081
402.8000	71.6084
402.7000	71.601
402.6000	71.5855
402.5000	71.5663
402.4000	71.5445
402.3000	71.5144
402.2000	71.4872
402.1000	71.4492
402.0000	71.4064
401.9000	71.3674
401.8000	71.3279
401.7000	71.2906
401.6000	71.2444
401.5000	71.2115
401.4000	71.1747
401.3000	71.1424
401.2000	71.112
401.1000	71.0823
401.0000	71.0604
400.9000	71.0449
400.8000	71.0312
400.7000	71.0252
400.6000	71.0206
400.5000	71.0259
400.4000	71.0341
400.3000	71.045
400.2000	71.0594
400.1000	71.0761
400.0000	71.0957
399.9000	71.1136
399.8000	71.1346
399.7000	71.1536
399.6000	71.1736
399.5000	71.1899
399.4000	71.2072
399.3000	71.2188
399.2000	71.2312
399.1000	71.2335
399.0000	71.2344
398.9000	71.2246
398.8000	71.2115
398.7000	71.1906
398.6000	71.1654
398.5000	71.1294
398.4000	71.0989
398.3000	71.0597
398.2000	71.0155
398.1000	70.9675
398.0000	70.9168
397.9000	70.873
397.8000	70.822
397.7000	70.766
397.6000	70.7099
397.5000	70.6615
397.4000	70.6097
397.3000	70.5689
397.2000	70.531
397.1000	70.4952
397.0000	70.4654
396.9000	70.444
396.8000	70.4191
396.7000	70.3991
396.6000	70.3806
396.5000	70.3722
396.4000	70.3642
396.3000	70.3525
396.2000	70.3488
396.1000	70.3506
396.0000	70.354
395.9000	70.3554
395.8000	70.3629
395.7000	70.3609
395.6000	70.3628
395.5000	70.361
395.4000	70.3552
395.3000	70.3471
395.2000	70.3357
395.1000	70.322
395.0000	70.3109
394.9000	70.2868
394.8000	70.2625
394.7000	70.2358
394.6000	70.2036
394.5000	70.1618
394.4000	70.1224
394.3000	70.0795
394.2000	70.0269
394.1000	69.9801
394.0000	69.9314
393.9000	69.8842
393.8000	69.835
393.7000	69.7877
393.6000	69.7432
393.5000	69.7013
393.4000	69.6598
393.3000	69.6288
393.2000	69.5965
393.1000	69.5707
393.0000	69.5457
392.9000	69.5311
392.8000	69.5162
392.7000	69.5009
392.6000	69.4963
392.5000	69.4961
392.4000	69.4923
392.3000	69.4887
392.2000	69.4887
392.1000	69.4962
392.0000	69.5035
391.9000	69.5027
391.8000	69.5041
391.7000	69.5019
391.6000	69.4992
391.5000	69.4978
391.4000	69.4919
391.3000	69.4839
391.2000	69.4694
391.1000	69.4521
391.0000	69.432
390.9000	69.4034
390.8000	69.3736
390.7000	69.3446
390.6000	69.3143
390.5000	69.2691
390.4000	69.2308
390.3000	69.1963
390.2000	69.1607
390.1000	69.1243
390.0000	69.0842
389.9000	69.0432
389.8000	69.0057
389.7000	68.9734
389.6000	68.9445
389.5000	68.9198
389.4000	68.8987
389.3000	68.875
389.2000	68.8596
389.1000	68.8428
389.0000	68.8275
388.9000	68.8137
388.8000	68.7981
388.7000	68.791
388.6000	68.7747
388.5000	68.7629
388.4000	68.7569
388.3000	68.7448
388.2000	68.7378
388.1000	68.7206
388.0000	68.6987
387.9000	68.6813
387.8000	68.6548
387.7000	68.6355
387.6000	68.6076
387.5000	68.5792
387.4000	68.5492
387.3000	68.5205
387.2000	68.4874
387.1000	68.4492
387.0000	68.4129
386.9000	68.3753
386.8000	68.3372
386.7000	68.3002
386.6000	68.2542
386.5000	68.2158
386.4000	68.1805
386.3000	68.1444
386.2000	68.1107
386.1000	68.08
386.0000	68.0454
385.9000	68.0187
385.8000	67.9864
385.7000	67.9596
385.6000	67.9312
385.5000	67.9047
385.4000	67.8842
385.3000	67.8616
385.2000	67.835
385.1000	67.806
385.0000	67.7836
384.9000	67.7562
384.8000	67.7278
384.7000	67.7005
384.6000	67.6719
384.5000	67.6376
384.4000	67.6042
384.3000	67.5673
384.2000	67.5315
384.1000	67.4934
384.0000	67.4539
383.9000	67.4123
383.8000	67.3687
383.7000	67.3239
383.6000	67.276
383.5000	67.2277
383.4000	67.1816
383.3000	67.1353
383.2000	67.0884
383.1000	67.038
383.0000	66.9921
382.9000	66.946
382.8000	66.9022
382.7000	66.8523
382.6000	66.8067
382.5000	66.7622
382.4000	66.7194
382.3000	66.675
382.2000	66.6318
382.1000	66.5859
382.0000	66.5424
381.9000	66.4982
381.8000	66.4506
381.7000	66.4019
381.6000	66.3495
381.5000	66.2948
381.4000	66.2379
381.3000	66.1769
381.2000	66.117
381.1000	66.0608
381.0000	65.9979
380.9000	65.9322
380.8000	65.868
380.7000	65.8001
380.6000	65.729
380.5000	65.6537
380.4000	65.5796
380.3000	65.5115
380.2000	65.4393
380.1000	65.3695
380.0000	65.2993
379.9000	65.2324
379.8000	65.1598
379.7000	65.0871
379.6000	65.0172
379.5000	64.9409
379.4000	64.8704
379.3000	64.7917
379.2000	64.7091
379.1000	64.6277
379.0000	64.5472
378.9000	64.4645
378.8000	64.3764
378.7000	64.2846
378.6000	64.1913
378.5000	64.0954
378.4000	63.9983
378.3000	63.9019
378.2000	63.8022
378.1000	63.7019
378.0000	63.5939
377.9000	63.4857
377.8000	63.3725
377.7000	63.2666
377.6000	63.1555
377.5000	63.0446
377.4000	62.9298
377.3000	62.8169
377.2000	62.7
377.1000	62.5811
377.0000	62.4604
376.9000	62.3308
376.8000	62.2029
376.7000	62.0645
376.6000	61.9285
376.5000	61.7851
376.4000	61.6439
376.3000	61.4942
376.2000	61.342
376.1000	61.18
376.0000	61.0199
375.9000	60.8468
375.8000	60.6681
375.7000	60.4913
375.6000	60.3136
375.5000	60.1258
375.4000	59.9324
375.3000	59.7425
375.2000	59.5403
375.1000	59.3331
375.0000	59.1223
374.9000	58.9062
374.8000	58.6803
374.7000	58.4516
374.6000	58.2169
374.5000	57.9746
374.4000	57.7216
374.3000	57.4611
374.2000	57.196
374.1000	56.9179
374.0000	56.6282
373.9000	56.3264
373.8000	56.0219
373.7000	55.7013
373.6000	55.3769
373.5000	55.0381
373.4000	54.6916
373.3000	54.3345
373.2000	53.9635
373.1000	53.5869
373.0000	53.2003
372.9000	52.8018
372.8000	52.3934
372.7000	51.9824
372.6000	51.5564
372.5000	51.1217
372.4000	50.6721
372.3000	50.2189
372.2000	49.7505
372.1000	49.2707
372.0000	48.7792
371.9000	48.2798
371.8000	47.7647
371.7000	47.2477
371.6000	46.7151
371.5000	46.1681
371.4000	45.6065
371.3000	45.0396
371.2000	44.4587
371.1000	43.8626
371.0000	43.259
370.9000	42.648
370.8000	42.0295
370.7000	41.3982
370.6000	40.7573
370.5000	40.1066
370.4000	39.446
370.3000	38.7773
370.2000	38.1025
370.1000	37.4157
370.0000	34.19
369.9000	33.4844
369.8000	32.7769
369.7000	32.0681
369.6000	31.3516
369.5000	30.6354
369.4000	29.9135
369.3000	29.1809
369.2000	28.4552
369.1000	27.7281
369.0000	27.0059
368.9000	26.2763
368.8000	25.5554
368.7000	24.8306
368.6000	24.1117
368.5000	23.389
368.4000	22.6762
368.3000	21.9717
368.2000	21.2789
368.1000	20.5873
368.0000	19.8998
367.9000	19.2249
367.8000	18.5603
367.7000	17.9066
367.6000	17.2575
367.5000	16.6171
367.4000	15.9839
367.3000	15.3689
367.2000	14.7657
367.1000	14.1723
367.0000	13.5868
366.9000	13.0166
366.8000	12.4591
366.7000	11.9156
366.6000	11.3827
366.5000	10.8614
366.4000	10.3599
366.3000	9.86615
366.2000	9.38788
366.1000	8.92377
366.0000	8.47398
365.9000	8.0364
365.8000	7.61478
365.7000	7.20413
365.6000	6.80645
365.5000	6.42355
365.4000	6.05642
365.3000	5.70295
365.2000	5.36093
365.1000	5.0329
365.0000	4.71849
364.9000	4.41821
364.8000	4.12852
364.7000	3.85368
364.6000	3.58976
364.5000	3.33843
364.4000	3.09929
364.3000	2.87216
364.2000	2.65747
364.1000	2.45338
364.0000	2.26084
363.9000	2.0792
363.8000	1.90925
363.7000	1.74863
363.6000	1.59863
363.5000	1.45754
363.4000	1.32507
363.3000	1.20268
363.2000	1.08958
363.1000	0.983788
363.0000	0.885408
362.9000	0.795488
362.8000	0.712614
362.7000	0.637602
362.6000	0.568088
362.5000	0.504202
362.4000	0.4464
362.3000	0.394382
362.2000	0.346773
362.1000	0.304052
362.0000	0.26582
361.9000	0.231717
361.8000	0.201688
361.7000	0.174855
361.6000	0.15108
361.5000	0.129966
361.4000	0.111759
361.3000	0.095732
361.2000	0.0817666
361.1000	0.0697607
361.0000	0.059163
360.9000	0.0503559
360.8000	0.0428362
360.7000	0.0363571
360.6000	0.0307779
360.5000	0.0261386
360.4000	0.0224467
360.3000	0.0193038
360.2000	0.0167298
360.1000	0.0145057
360.0000	0.0126797
359.9000	0.0111793
359.8000	0.0100025
359.7000	0.00902557
359.6000	0.00822341
359.5000	0.00754627
359.4000	0.00691964
359.3000	0.00647091
359.2000	0.00604539
359.1000	0.00579386
359.0000	0.0054698
358.9000	0.00519402
358.8000	0.00491806
358.7000	0.00469121
358.6000	0.00446506
358.5000	0.00428927
358.4000	0.00418923
358.3000	0.00401297
358.2000	0.00393523
358.1000	0.00383317
358.0000	0.00373397
357.9000	0.00361001
357.8000	0.00353631
357.7000	0.00350991
357.6000	0.00343271
357.5000	0.00328458
357.4000	0.00325929
357.3000	0.00313662
357.2000	0.00306302
357.1000	0.00298974
357.0000	0.00291616
356.9000	0.00291547
356.8000	0.00286635
356.7000	0.00281804
356.6000	0.00269604
356.5000	0.0026231
356.4000	0.00259838
356.3000	0.00247593
356.2000	0.00250029
356.1000	0.00242656
356.0000	0.00240209
355.9000	0.00230381
355.8000	0.0023038
355.7000	0.00230387
355.6000	0.00223087
355.5000	0.00220641
355.4000	0.00220734
355.3000	0.00213339
355.2000	0.00208457
355.1000	0.00205936
355.0000	0.00203501
354.9000	0.00196122
354.8000	0.00196017
354.7000	0.00200895
354.6000	0.00188717
354.5000	0.00181373
354.4000	0.00174044
354.3000	0.00178907
354.2000	0.00169053
354.1000	0.00169107
354.0000	0.00171522
353.9000	0.00169098
353.8000	0.00159271
353.7000	0.00151956
353.6000	0.00144647
353.5000	0.00142242
353.4000	0.00142258
353.3000	0.00147219
353.2000	0.00137478
353.1000	0.00132596
353.0000	0.00135008
352.9000	0.00137493
352.8000	0.00139951
352.7000	0.00139972
352.6000	0.00144912
352.5000	0.0013265
352.4000	0.00127783
352.3000	0.00127788
352.2000	0.00132695
352.1000	0.00132756
352.0000	0.00135188
351.9000	0.00137627
351.8000	0.00132758
351.7000	0.00122897
351.6000	0.00122886
351.5000	0.00125255
351.4000	0.0012283
351.3000	0.00120406
351.2000	0.00120378
351.1000	0.00117881
351.0000	0.00122785
350.9000	0.00125206
350.8000	0.00130118
350.7000	0.0012518
350.6000	0.00115349
350.5000	0.00115226
350.4000	0.00112755
350.3000	0.00105404
350.2000	0.00102968
350.1000	0.00110331
350.0000	0.0010785
349.9000	0.00103033
349.8000	0.000980977
349.7000	0.000882674
349.6000	0.000858216
349.5000	0.00080964
349.4000	0.000711642
349.3000	0.000686463
349.2000	0.00066189
349.1000	0.00061243
349.0000	0.000685567
348.9000	0.000686401
348.8000	0.000687224
348.7000	0.000663558
348.6000	0.000687506
348.5000	0.000613622
348.4000	0.000613806
348.3000	0.000613837
348.2000	0.000614002
348.1000	0.000686854
348.0000	0.000637838
347.9000	0.000661776
347.8000	0.000661656
347.7000	0.000637562
347.6000	0.000637289
347.5000	0.000638304
347.4000	0.000662921
347.3000	0.000662796
347.2000	0.000710614
347.1000	0.000783571
347.0000	0.000734802
346.9000	0.000784399
346.8000	0.000785092
346.7000	0.000735502
346.6000	0.000735442
346.5000	0.000735872
346.4000	0.00073604
346.3000	0.000736743
346.2000	0.00076102
346.1000	0.000785453
346.0000	0.00078553
345.9000	0.00076071
345.8000	0.000686861
345.7000	0.000687224
345.6000	0.000663429
345.5000	0.000638862
345.4000	0.000687705
345.3000	0.000687661
345.2000	0.000711666
345.1000	0.000785268
345.0000	0.000785511
344.9000	0.000736792
344.8000	0.000736242
344.7000	0.000686588
344.6000	0.000662579
344.5000	0.000687466
344.4000	0.000662733
344.3000	0.000662515
344.2000	0.000736822
344.1000	0.000736732
344.0000	0.000687666
343.9000	0.000711512
343.8000	0.000662069
343.7000	0.000686188
343.6000	0.000661684
343.5000	0.000637154
343.4000	0.000612418
343.3000	0.000660575
343.2000	0.000709678
343.1000	0.000734219
343.0000	0.000709204
342.9000	0.00070906
342.8000	0.000733293
342.7000	0.00078183
342.6000	0.000733056
342.5000	0.0007085
342.4000	0.000733
342.3000	0.000709302
342.2000	0.000734101
342.1000	0.000709179
342.0000	0.000733397
341.9000	0.000758242
341.8000	0.000832072
341.7000	0.000856871
341.6000	0.00083293
341.5000	0.000809071
341.4000	0.000858186
341.3000	0.000834349
341.2000	0.00083454
341.1000	0.00078565
341.0000	0.000834429
340.9000	0.000810199
340.8000	0.00083447
340.7000	0.000760401
340.6000	0.000760265
340.5000	0.000784977
340.4000	0.000760763
340.3000	0.000736247
340.2000	0.000711403
340.1000	0.000711265
340.0000	0.00925738
339.9000	0.00920653
339.8000	0.00915675
339.7000	0.0091069
339.6000	0.0090812
339.5000	0.00902994
339.4000	0.00893035
339.3000	0.00890449
339.2000	0.0087804
339.1000	0.00872747
339.0000	0.0087512
338.9000	0.00862834
338.8000	0.0085029
338.7000	0.00842646
338.6000	0.0084978
338.5000	0.00852089
338.4000	0.00839763
338.3000	0.00835054
338.2000	0.00832474
338.1000	0.00829942
338.0000	0.00820087
337.9000	0.00827551
337.8000	0.00827472
337.7000	0.00825037
337.6000	0.00834694
337.5000	0.00839717
337.4000	0.00832049
337.3000	0.00829342
337.2000	0.00836828
337.1000	0.00836876
337.0000	0.00831934
336.9000	0.00834399
336.8000	0.00831858
336.7000	0.0082681
336.6000	0.00821859
336.5000	0.00824317
336.4000	0.0083162
336.3000	0.00826718
336.2000	0.00821724
336.1000	0.00819198
336.0000	0.00816749
335.9000	0.00813816
335.8000	0.0081614
335.7000	0.00806284
335.6000	0.0080118
335.5000	0.00800934
335.4000	0.00791054
335.3000	0.0078363
335.2000	0.0077625
335.1000	0.00773721
335.0000	0.00775952
334.9000	0.0077097
334.8000	0.00758436
334.7000	0.00755883
334.6000	0.00758081
334.5000	0.0075045
334.4000	0.00747974
334.3000	0.00738233
334.2000	0.00733366
334.1000	0.00740774
334.0000	0.00738262
333.9000	0.00725993
333.8000	0.0073082
333.7000	0.00725708
333.6000	0.00725636
333.5000	0.00728101
333.4000	0.00725695
333.3000	0.00718051
333.2000	0.00718151
333.1000	0.00710847
333.0000	0.00705969
332.9000	0.00710824
332.8000	0.00708088
332.7000	0.00708119
332.6000	0.00700623
332.5000	0.00698074
332.4000	0.00692844
332.3000	0.0070012
332.2000	0.00700067
332.1000	0.00702592
332.0000	0.00704881
331.9000	0.00699706
331.8000	0.00699459
331.7000	0.00697041
331.6000	0.00701849
331.5000	0.00694425
331.4000	0.00686952
331.3000	0.00687022
331.2000	0.00677182
331.1000	0.0068203
331.0000	0.00677072
330.9000	0.00674426
330.8000	0.00667046
330.7000	0.00667074
330.6000	0.00664459
330.5000	0.00659472
330.4000	0.00652314
330.3000	0.0065714
330.2000	0.00652124
330.1000	0.00651917
330.0000	0.00649228
329.9000	0.00651339
329.8000	0.00653875
329.7000	0.0064648
329.6000	0.00649015
329.5000	0.00639022
329.4000	0.0064135
329.3000	0.0064867
329.2000	0.00651283
329.1000	0.00648651
329.0000	0.00653752
328.9000	0.0065362
328.8000	0.00653203
328.7000	0.00650816
328.6000	0.00646026
328.5000	0.00646119
328.4000	0.00641132
328.3000	0.00641158
328.2000	0.00640989
328.1000	0.00643494
328.0000	0.00643439
327.9000	0.00640884
327.8000	0.00638431
327.7000	0.00623689
327.6000	0.00628273
327.5000	0.0062338
327.4000	0.00610847
327.3000	0.00608284
327.2000	0.00613337
327.1000	0.00610936
327.0000	0.00613383
326.9000	0.00613461
326.8000	0.00613457
326.7000	0.00618489
326.6000	0.00611154
326.5000	0.00606101
326.4000	0.00603544
326.3000	0.00608396
326.2000	0.00605947
326.1000	0.00605945
326.0000	0.00601087
325.9000	0.00603418
325.8000	0.00605654
325.7000	0.00603137
325.6000	0.00595587
325.5000	0.00590636
325.4000	0.00590333
325.3000	0.00587674
325.2000	0.00582616
325.1000	0.00579877
325.0000	0.00589484
324.9000	0.00594357
324.8000	0.00591894
324.7000	0.00584632
324.6000	0.005894
324.5000	0.00586888
324.4000	0.00584392
324.3000	0.00579434
324.2000	0.00577088
324.1000	0.00567189
324.0000	0.00559986
323.9000	0.00557377
323.8000	0.0055755
323.7000	0.00554882
323.6000	0.00557501
323.5000	0.0055028
323.4000	0.00533207
323.3000	0.00528278
323.2000	0.00532963
323.1000	0.0053278
323.0000	0.0052061
322.9000	0.00520641
322.8000	0.00520641
322.7000	0.00518149
322.6000	0.00515529
322.5000	0.00520363
322.4000	0.00515265
322.3000	0.00515247
322.2000	0.00503045
322.1000	0.00498119
322.0000	0.00493116
321.9000	0.00492949
321.8000	0.00502674
321.7000	0.00495348
321.6000	0.00488032
321.5000	0.0049042
321.4000	0.00492708
321.3000	0.00497527
321.2000	0.00487719
321.1000	0.00487753
321.0000	0.00485412
320.9000	0.00485574
320.8000	0.00487938
320.7000	0.0048306
320.6000	0.00485403
320.5000	0.00488
320.4000	0.0048553
320.3000	0.00488023
320.2000	0.00490372
320.1000	0.00487807
320.0000	0.0047809
319.9000	0.00473311
319.8000	0.00470664
319.7000	0.00463363
319.6000	0.00460882
319.5000	0.00460867
319.4000	0.00460805
319.3000	0.00458097
319.2000	0.00458141
319.1000	0.004507
319.0000	0.00443266
318.9000	0.00443233
318.8000	0.0043823
318.7000	0.00433204
318.6000	0.00425961
318.5000	0.00428337
318.4000	0.00435573
318.3000	0.00433111
318.2000	0.00438255
318.1000	0.00433262
318.0000	0.0044307
317.9000	0.00440534
317.8000	0.00435689
317.7000	0.00435766
317.6000	0.00438218
317.5000	0.00443075
317.4000	0.00455312
317.3000	0.00443143
317.2000	0.00450484
317.1000	0.00448016
317.0000	0.00440693
316.9000	0.00435817
316.8000	0.00426119
316.7000	0.00426131
316.6000	0.00423509
316.5000	0.00428353
316.4000	0.00423377
316.3000	0.00411074
316.2000	0.00413451
316.1000	0.00406115
316.0000	0.0039889
315.9000	0.0039399
315.8000	0.0038661
315.7000	0.00393962
315.6000	0.00389169
315.5000	0.00386958
315.4000	0.00386758
315.3000	0.00389104
315.2000	0.00396244
315.1000	0.00388762
315.0000	0.00384033
314.9000	0.00381604
314.8000	0.00383962
314.7000	0.00396354
314.6000	0.0039411
314.5000	0.00394212
314.4000	0.00396466
314.3000	0.00403815
314.2000	0.00406253
314.1000	0.00401351
314.0000	0.0040128
313.9000	0.00401125
313.8000	0.00406034
313.7000	0.00408403
313.6000	0.00406066
313.5000	0.00406109
313.4000	0.00408439
313.3000	0.00403392
313.2000	0.00401137
313.1000	0.00398439
313.0000	0.00395622
312.9000	0.00397901
312.8000	0.00400379
312.7000	0.00398034
312.6000	0.00395411
312.5000	0.00400116
312.4000	0.00400022
312.3000	0.00402353
312.2000	0.003948
312.1000	0.00392417
312.0000	0.00394664
311.9000	0.00399533
311.8000	0.00389941
311.7000	0.00397374
311.6000	0.00394968
311.5000	0.00390168
311.4000	0.00395011
311.3000	0.00394924
311.2000	0.00389929
311.1000	0.00385041
311.0000	0.00385042
310.9000	0.00380165
310.8000	0.00375229
310.7000	0.00375312
310.6000	0.00378056
310.5000	0.0037318
310.4000	0.0037093
310.3000	0.0037329
310.2000	0.00375448
310.1000	0.00370465
310.0000	0.00375205
309.9000	0.00379927
309.8000	0.00375367
309.7000	0.00372874
309.6000	0.00375421
309.5000	0.00377593
309.4000	0.00370285
309.3000	0.00372755
309.2000	0.00370483
309.1000	0.00365357
309.0000	0.00367481
308.9000	0.00369825
308.8000	0.00369647
308.7000	0.00367079
308.6000	0.00367209
308.5000	0.00369539
308.4000	0.00366995
308.3000	0.00362274
308.2000	0.00362157
308.1000	0.00362125
308.0000	0.00359722
307.9000	0.00357306
307.8000	0.00359653
307.7000	0.00357165
307.6000	0.00357095
307.5000	0.00359494
307.4000	0.00357034
307.3000	0.00345019
307.2000	0.00340189
307.1000	0.0033539
307.0000	0.0033291
306.9000	0.00328087
306.8000	0.003209
306.7000	0.00320891
306.6000	0.00313682
306.5000	0.00308857
306.4000	0.00306357
306.3000	0.00308696
306.2000	0.00301567
306.1000	0.00296787
306.0000	0.0029678
305.9000	0.00291918
305.8000	0.00291983
305.7000	0.00301493
305.6000	0.00303832
305.5000	0.00306238
305.4000	0.00306249
305.3000	0.0030149
305.2000	0.00303781
305.1000	0.00308515
305.0000	0.00306096
304.9000	0.0031083
304.8000	0.00308467
304.7000	0.00301327
304.6000	0.00301261
304.5000	0.0029876
304.4000	0.00303433
304.3000	0.00303456
304.2000	0.00293855
304.1000	0.00289013
304.0000	0.00284263
303.9000	0.00277044
303.8000	0.00277012
303.7000	0.0027703
303.6000	0.00276956
303.5000	0.00267358
303.4000	0.00276896
303.3000	0.00269789
303.2000	0.00274515
303.1000	0.00276857
303.0000	0.00276849
302.9000	0.00279261
302.8000	0.00274474
302.7000	0.00274369
302.6000	0.00286253
302.5000	0.00288656
302.4000	0.00291061
302.3000	0.00291085
302.2000	0.00290978
302.1000	0.00290833
302.0000	0.00298018
301.9000	0.00300401
301.8000	0.00288435
301.7000	0.00297874
301.6000	0.00293088
301.5000	0.00297829
301.4000	0.00307335
301.3000	0.00307365
301.2000	0.00304984
301.1000	0.00309799
301.0000	0.00302587
300.9000	0.0030497
300.8000	0.00302568
300.7000	0.00304826
300.6000	0.00309635
300.5000	0.00307257
300.4000	0.00295315
300.3000	0.0029527
300.2000	0.00302438
300.1000	0.00292983
300.0000	0.00297735
299.9000	0.00290562
299.8000	0.00283407
299.7000	0.0028104
299.6000	0.00281009
299.5000	0.00269096
299.4000	0.00266726
299.3000	0.00264374
299.2000	0.00257202
299.1000	0.00250059
299.0000	0.00240528
298.9000	0.0024057
298.8000	0.00245318
298.7000	0.00245269
298.6000	0.00245239
298.5000	0.00247519
298.4000	0.00240302
298.3000	0.0024501
298.2000	0.00242609
298.1000	0.0024961
298.0000	0.00247249
297.9000	0.00254393
297.8000	0.0026153
297.7000	0.0025905
297.6000	0.00266191
297.5000	0.00268663
297.4000	0.00273394
297.3000	0.00268533
297.2000	0.00259022
297.1000	0.00259007
297.0000	0.0025421
296.9000	0.00244706
296.8000	0.00242326
296.7000	0.0023279
296.6000	0.00232812
296.5000	0.00225713
296.4000	0.00230423
296.3000	0.00225619
296.2000	0.00216004
296.1000	0.00211278
296.0000	0.00208836
295.9000	0.00206351
295.8000	0.00206299
295.7000	0.00211107
295.6000	0.00208765
295.5000	0.00201647
295.4000	0.00203952
295.3000	0.00203928
295.2000	0.0020387
295.1000	0.00206322
295.0000	0.00206226
294.9000	0.00203862
294.8000	0.00194377
294.7000	0.00192056
294.6000	0.00194454
294.5000	0.00196813
294.4000	0.0019681
294.3000	0.0020159
294.2000	0.00196939
294.1000	0.00187434
294.0000	0.00187394
293.9000	0.00184983
293.8000	0.00184939
293.7000	0.00189679
293.6000	0.00189724
293.5000	0.00189675
293.4000	0.00184945
293.3000	0.00180184
293.2000	0.00177764
293.1000	0.00180103
293.0000	0.00177781
292.9000	0.00177704
292.8000	0.00172889
292.7000	0.00165732
292.6000	0.00168069
292.5000	0.00165628
292.4000	0.00167974
292.3000	0.00170325
292.2000	0.00165612
292.1000	0.00167967
292.0000	0.00165595
291.9000	0.00160847
291.8000	0.00163191
291.7000	0.00167974
291.6000	0.00168029
291.5000	0.00163214
291.4000	0.00163159
291.3000	0.00163207
291.2000	0.00165632
291.1000	0.00165739
291.0000	0.00151432
290.9000	0.00160976
290.8000	0.00156249
290.7000	0.00153944
290.6000	0.00151588
290.5000	0.00149221
290.4000	0.00149192
290.3000	0.00151549
290.2000	0.00149215
290.1000	0.00149162
290.0000	0.00158613
289.9000	0.00158633
289.8000	0.00158638
289.7000	0.00149146
289.6000	0.00149112
289.5000	0.00153783
289.4000	0.00168076
289.3000	0.00160929
289.2000	0.00163243
289.1000	0.00160778
289.0000	0.00163167
288.9000	0.00163179
288.8000	0.00158454
288.7000	0.00151341
288.6000	0.00151338
288.5000	0.00148963
288.4000	0.00139463
288.3000	0.00137073
288.2000	0.00137077
288.1000	0.00139478
288.0000	0.00137119
287.9000	0.00132358
287.8000	0.00132329
287.7000	0.00132294
287.6000	0.00129973
287.5000	0.0013243
287.4000	0.00130061
287.3000	0.00122907
287.2000	0.00125255
287.1000	0.00125228
287.0000	0.00125154
286.9000	0.00125178
286.8000	0.001252
286.7000	0.00127594
286.6000	0.00122818
286.5000	0.00120416
286.4000	0.00122721
286.3000	0.00127446
286.2000	0.00125073
286.1000	0.00132257
286.0000	0.00129854
285.9000	0.00127471
285.8000	0.00134541
285.7000	0.00139324
285.6000	0.00141657
285.5000	0.0014165
285.4000	0.00136982
285.3000	0.00134564
285.2000	0.00136944
285.1000	0.00132161
285.0000	0.00129801
284.9000	0.00132085
284.8000	0.00132169
284.7000	0.00127476
284.6000	0.00122762
284.5000	0.001204
284.4000	0.00120372
284.3000	0.00125081
284.2000	0.00115595
284.1000	0.00113224
284.0000	0.00110901
283.9000	0.00118034
283.8000	0.00115613
283.7000	0.00117955
283.6000	0.00113176
283.5000	0.0011791
283.4000	0.00120315
283.3000	0.00115592
283.2000	0.00110833
283.1000	0.00106001
283.0000	0.00108324
282.9000	0.0010592
282.8000	0.00113025
282.7000	0.00108271
282.6000	0.00110654
282.5000	0.00108258
282.4000	0.00112998
282.3000	0.00101109
282.2000	0.00105881
282.1000	0.00101177
282.0000	0.00101174
281.9000	0.000964616
281.8000	0.00096396
281.7000	0.00101148
281.6000	0.0009885
281.5000	0.000988654
281.4000	0.000964656
281.3000	0.000940617
281.2000	0.000893731
281.1000	0.000869711
281.0000	0.000846418
280.9000	0.000893979
280.8000	0.000774798
280.7000	0.000822849
280.6000	0.00079891
280.5000	0.000822259
280.4000	0.000821818
280.3000	0.000845733
280.2000	0.000822438
280.1000	0.000798961
280.0000	0.000750453
279.9000	0.000774061
279.8000	0.00077407
279.7000	0.000774371
279.6000	0.00077397
279.5000	0.000774321
279.4000	0.000797517
279.3000	0.000820926
279.2000	0.000892297
279.1000	0.000962661
279.0000	0.00091503
278.9000	0.000891562
278.8000	0.000891923
278.7000	0.000844014
278.6000	0.000915017
278.5000	0.000962256
278.4000	0.00101023
278.3000	0.00103407
278.2000	0.00105771
278.1000	0.00105744
278.0000	0.00103391
277.9000	0.00103366
277.8000	0.00100989
277.7000	0.000962952
277.6000	0.000962823
277.5000	0.000891566
277.4000	0.000962002
277.3000	0.000962164
277.2000	0.000962803
277.1000	0.000986777
277.0000	0.000915347
276.9000	0.00091559
276.8000	0.00089146
276.7000	0.000820664
276.6000	0.000796885
276.5000	0.000820871
276.4000	0.000796702
276.3000	0.000819883
276.2000	0.000796348
276.1000	0.000748464
276.0000	0.000725387
275.9000	0.000725749
275.8000	0.000726112
275.7000	0.000701903
275.6000	0.000748458
275.5000	0.000724703
275.4000	0.000748819
275.3000	0.000701557
275.2000	0.000748963
275.1000	0.000748513
275.0000	0.000723649
274.9000	0.000770763
274.8000	0.000771388
274.7000	0.000724598
274.6000	0.000747258
274.5000	0.000747322
274.4000	0.000723812
274.3000	0.000747674
274.2000	0.000700373
274.1000	0.000723973
274.0000	0.000676599
273.9000	0.000746917
273.8000	0.000770005
273.7000	0.000745964
273.6000	0.000746249
273.5000	0.000769651
273.4000	0.000793899
273.3000	0.000722329
273.2000	0.000746057
273.1000	0.000793158
273.0000	0.000864913
272.9000	0.000911863
272.8000	0.00095887
272.7000	0.000958632
272.6000	0.000982705
272.5000	0.000982957
272.4000	0.000983172
272.3000	0.000912604
272.2000	0.000865809
272.1000	0.000841798
272.0000	0.000840907
271.9000	0.000840859
271.8000	0.000818313
271.7000	0.000771238
271.6000	0.000817622
271.5000	0.000793753
271.4000	0.000721986
271.3000	0.000698826
271.2000	0.000674879
271.1000	0.00069831
271.0000	0.000721175
270.9000	0.000745176
270.8000	0.000744876
270.7000	0.000815821
270.6000	0.000814685
270.5000	0.000885857
270.4000	0.000862551
270.3000	0.000863159
270.2000	0.000933418
270.1000	0.00100407
270.0000	0.000933718
269.9000	0.000934464
269.8000	0.000959162
269.7000	0.000958973
269.6000	0.000958773
269.5000	0.000935609
269.4000	0.000912779
269.3000	0.000912163
269.2000	0.000888404
269.1000	0.000888025
269.0000	0.000912451
268.9000	0.000888971
268.8000	0.00088943
268.7000	0.00091268
268.6000	0.000818457
268.5000	0.000771109
268.4000	0.00079498
268.3000	0.000770658
268.2000	0.000770202
268.1000	0.000723
268.0000	0.000699612
267.9000	0.000651962
267.8000	0.000675387
267.7000	0.0006285
267.6000	0.0006521
267.5000	0.000581655
267.4000	0.000605119
267.3000	0.000628452
267.2000	0.000652376
267.1000	0.000628944
267.0000	0.000652496
266.9000	0.000723019
266.8000	0.000746347
266.7000	0.000770217
266.6000	0.000723189
266.5000	0.000794314
266.4000	0.000817924
266.3000	0.000841438
266.2000	0.00081752
266.1000	0.000864539
266.0000	0.000864584
265.9000	0.000888273
265.8000	0.000817787
265.7000	0.000770534
265.6000	0.000746033
265.5000	0.000769417
265.4000	0.00079255
265.3000	0.000746152
265.2000	0.000674853
265.1000	0.000698338
265.0000	0.000722
264.9000	0.000674479
264.8000	0.000627347
264.7000	0.000627629
264.6000	0.000627993
264.5000	0.000628147
264.4000	0.000604585
264.3000	0.000605056
264.2000	0.000604646
264.1000	0.000651436
264.0000	0.000604116
263.9000	0.000556701
263.8000	0.000533186
263.7000	0.000532703
263.6000	0.00057985
263.5000	0.000532922
263.4000	0.000509791
263.3000	0.000533326
263.2000	0.00058072
263.1000	0.000557025
263.0000	0.000556299
262.9000	0.000532537
262.8000	0.000556666
262.7000	0.000556813
262.6000	0.000557186
262.5000	0.000486615
262.4000	0.000509837
262.3000	0.000580647
262.2000	0.000581195
262.1000	0.000605624
262.0000	0.000558741
261.9000	0.000582152
261.8000	0.000604795
261.7000	0.000627956
261.6000	0.000698554
261.5000	0.000722325
261.4000	0.000699335
261.3000	0.000699168
261.2000	0.000675015
261.1000	0.000698155
261.0000	0.00072171
260.9000	0.000792907
260.8000	0.000817867
260.7000	0.000723563
260.6000	0.000769989
260.5000	0.000745904
260.4000	0.000745785
260.3000	0.000793224
260.2000	0.000793492
260.1000	0.000770028
260.0000	0.000723176
259.9000	0.00069935
259.8000	0.000722816
259.7000	0.000698951
259.6000	0.000769897
259.5000	0.000722307
259.4000	0.000722597
259.3000	0.000699406
259.2000	0.000699155
259.1000	0.000769436
259.0000	0.000698773
258.9000	0.000698599
258.8000	0.000746147
258.7000	0.000722201
258.6000	0.00072283
258.5000	0.000722768
258.4000	0.000698771
258.3000	0.000769649
258.2000	0.000793735
258.1000	0.000817871
258.0000	0.000723845
257.9000	0.000747546
257.8000	0.000747175
257.7000	0.000746618
257.6000	0.000745628
257.5000	0.000722603
257.4000	0.000746201
257.3000	0.000723056
257.2000	0.00072335
257.1000	0.000700071
257.0000	0.000675392
256.9000	0.000675645
256.8000	0.000699522
256.7000	0.000604934
256.6000	0.000604381
256.5000	0.000627658
256.4000	0.000650773
256.3000	0.000650426
256.2000	0.000650845
256.1000	0.000580309
256.0000	0.000557256
255.9000	0.000557692
255.8000	0.000581459
255.7000	0.000628416
255.6000	0.000651453
255.5000	0.000651178
255.4000	0.00060432
255.3000	0.000627938
255.2000	0.000628042
255.1000	0.000722923
255.0000	0.000676019
254.9000	0.000652829
254.8000	0.000652696
254.7000	0.000652932
254.6000	0.000652761
254.5000	0.000700113
254.4000	0.000771285
254.3000	0.000771344
254.2000	0.000771767
254.1000	0.000748414
254.0000	0.000702089
253.9000	0.000702729
253.8000	0.000773645
253.7000	0.00075028
253.6000	0.000726642
253.5000	0.000679357
253.4000	0.000679551
253.3000	0.000679487
253.2000	0.000704006
253.1000	0.000704336
253.0000	0.000751393
252.9000	0.00072724
252.8000	0.000703824
252.7000	0.000703711
252.6000	0.000703822
252.5000	0.000727447
252.4000	0.000750766
252.3000	0.000750277
252.2000	0.000774345
252.1000	0.000797938
252.0000	0.000773944
251.9000	0.000726979
251.8000	0.00077404
251.7000	0.000773927
251.6000	0.000773171
251.5000	0.000796825
251.4000	0.000773196
251.3000	0.00084487
251.2000	0.000820886
251.1000	0.000797637
251.0000	0.00077378
250.9000	0.000750018
250.8000	0.000749566
250.7000	0.000820618
250.6000	0.000796807
250.5000	0.000797144
250.4000	0.000797301
250.3000	0.000844809
250.2000	0.00079694
250.1000	0.000772929
250.0000	0.000725657
