TITLE	p-GaN-NP
DATA TYPE	ULTRAVIOLET SPECTRUM
ORIGIN	JASCO
OWNER	
DATE	21/05/03
TIME	16:56:37
SPECTROMETER/DATA SYSTEM	
RESOLUTION	
DELTAX	-0.1
XUNITS	NANOMETERS
YUNITS	TRANSMITTANCE
FIRSTX	  850.0000
LASTX	  250.0000
NPOINTS	    6001
FIRSTY	    76.30771
MAXY	    79.46679
MINY	     0.00225
XYDATA
850.0000	76.3077
849.9000	76.1763
849.8000	76.0581
849.7000	75.9464
849.6000	75.8381
849.5000	75.7318
849.4000	75.6067
849.3000	75.4937
849.2000	75.3791
849.1000	75.2612
849.0000	75.1432
848.9000	75.0203
848.8000	74.9014
848.7000	74.7841
848.6000	74.6864
848.5000	74.5695
848.4000	74.4521
848.3000	74.3305
848.2000	74.2214
848.1000	74.0989
848.0000	73.9806
847.9000	73.8516
847.8000	73.7384
847.7000	73.6213
847.6000	73.4967
847.5000	73.3785
847.4000	73.2568
847.3000	73.1396
847.2000	73.0311
847.1000	72.9102
847.0000	72.7906
846.9000	72.6813
846.8000	72.5817
846.7000	72.4795
846.6000	72.3773
846.5000	72.2822
846.4000	72.1744
846.3000	72.0787
846.2000	71.9819
846.1000	71.8843
846.0000	71.7969
845.9000	71.7037
845.8000	71.62
845.7000	71.5418
845.6000	71.4572
845.5000	71.3755
845.4000	71.2779
845.3000	71.1929
845.2000	71.1058
845.1000	71.0331
845.0000	70.949
844.9000	70.8668
844.8000	70.7991
844.7000	70.7315
844.6000	70.6581
844.5000	70.5899
844.4000	70.5166
844.3000	70.4516
844.2000	70.3843
844.1000	70.3159
844.0000	70.2569
843.9000	70.2039
843.8000	70.1559
843.7000	70.1039
843.6000	70.063
843.5000	70.0084
843.4000	69.9699
843.3000	69.9296
843.2000	69.8923
843.1000	69.8488
843.0000	69.8213
842.9000	69.7906
842.8000	69.7703
842.7000	69.7484
842.6000	69.7253
842.5000	69.7048
842.4000	69.6847
842.3000	69.6661
842.2000	69.6567
842.1000	69.6505
842.0000	69.6366
841.9000	69.6302
841.8000	69.6266
841.7000	69.6229
841.6000	69.6234
841.5000	69.6308
841.4000	69.6348
841.3000	69.6435
841.2000	69.646
841.1000	69.6634
841.0000	69.6741
840.9000	69.6831
840.8000	69.7115
840.7000	69.728
840.6000	69.7514
840.5000	69.7739
840.4000	69.8029
840.3000	69.8426
840.2000	69.8803
840.1000	69.9178
840.0000	69.9586
839.9000	70.0009
839.8000	70.0472
839.7000	70.0985
839.6000	70.1508
839.5000	70.1951
839.4000	70.2509
839.3000	70.3087
839.2000	70.3508
839.1000	70.4122
839.0000	70.4774
838.9000	70.5416
838.8000	70.6089
838.7000	70.6772
838.6000	70.7468
838.5000	70.8207
838.4000	70.893
838.3000	70.9751
838.2000	71.0521
838.1000	71.1283
838.0000	71.2124
837.9000	71.3024
837.8000	71.3919
837.7000	71.4841
837.6000	71.5905
837.5000	71.6892
837.4000	71.7784
837.3000	71.8782
837.2000	71.9736
837.1000	72.0707
837.0000	72.1748
836.9000	72.2703
836.8000	72.3762
836.7000	72.474
836.6000	72.5788
836.5000	72.6855
836.4000	72.7934
836.3000	72.8962
836.2000	73.0058
836.1000	73.1178
836.0000	73.2308
835.9000	73.342
835.8000	73.4606
835.7000	73.5695
835.6000	73.6881
835.5000	73.8014
835.4000	73.9073
835.3000	74.0194
835.2000	74.1306
835.1000	74.2377
835.0000	74.3604
834.9000	74.4798
834.8000	74.5816
834.7000	74.7023
834.6000	74.8101
834.5000	74.926
834.4000	75.0311
834.3000	75.1486
834.2000	75.2561
834.1000	75.3739
834.0000	75.4875
833.9000	75.5968
833.8000	75.7107
833.7000	75.8361
833.6000	75.9501
833.5000	76.0746
833.4000	76.1751
833.3000	76.2879
833.2000	76.4041
833.1000	76.5001
833.0000	76.611
832.9000	76.7185
832.8000	76.8231
832.7000	76.9277
832.6000	77.0326
832.5000	77.1322
832.4000	77.2242
832.3000	77.3266
832.2000	77.4195
832.1000	77.5059
832.0000	77.5926
831.9000	77.6743
831.8000	77.7653
831.7000	77.8452
831.6000	77.933
831.5000	78.0283
831.4000	78.1094
831.3000	78.1847
831.2000	78.2634
831.1000	78.3379
831.0000	78.4073
830.9000	78.472
830.8000	78.5494
830.7000	78.6202
830.6000	78.6915
830.5000	78.7572
830.4000	78.8237
830.3000	78.8831
830.2000	78.94
830.1000	78.9964
830.0000	79.05
829.9000	79.0979
829.8000	79.1442
829.7000	79.1906
829.6000	79.23
829.5000	79.2585
829.4000	79.2959
829.3000	79.3337
829.2000	79.3593
829.1000	79.3765
829.0000	79.3945
828.9000	79.4113
828.8000	79.4277
828.7000	79.4481
828.6000	79.4606
828.5000	79.4617
828.4000	79.4668
828.3000	79.4658
828.2000	79.462
828.1000	79.4599
828.0000	79.4555
827.9000	79.4484
827.8000	79.438
827.7000	79.4187
827.6000	79.3984
827.5000	79.3735
827.4000	79.3504
827.3000	79.3238
827.2000	79.2932
827.1000	79.257
827.0000	79.2214
826.9000	79.1966
826.8000	79.1555
826.7000	79.1149
826.6000	79.0738
826.5000	79.0244
826.4000	78.97
826.3000	78.9213
826.2000	78.8655
826.1000	78.8086
826.0000	78.7478
825.9000	78.6963
825.8000	78.6186
825.7000	78.551
825.6000	78.4776
825.5000	78.4041
825.4000	78.3185
825.3000	78.2279
825.2000	78.1487
825.1000	78.0676
825.0000	77.9853
824.9000	77.8956
824.8000	77.8064
824.7000	77.7111
824.6000	77.6188
824.5000	77.5245
824.4000	77.4237
824.3000	77.3219
824.2000	77.2255
824.1000	77.1315
824.0000	77.027
823.9000	76.9256
823.8000	76.8242
823.7000	76.7262
823.6000	76.6168
823.5000	76.5019
823.4000	76.3837
823.3000	76.2779
823.2000	76.1677
823.1000	76.055
823.0000	75.9336
822.9000	75.8213
822.8000	75.7111
822.7000	75.5959
822.6000	75.4878
822.5000	75.3672
822.4000	75.2553
822.3000	75.1329
822.2000	75.0177
822.1000	74.8938
822.0000	74.7724
821.9000	74.6543
821.8000	74.5412
821.7000	74.4132
821.6000	74.2946
821.5000	74.1698
821.4000	74.0513
821.3000	73.922
821.2000	73.7974
821.1000	73.6741
821.0000	73.5494
820.9000	73.4248
820.8000	73.3043
820.7000	73.1772
820.6000	73.0619
820.5000	72.9498
820.4000	72.8283
820.3000	72.7139
820.2000	72.5951
820.1000	72.4785
820.0000	72.3636
819.9000	72.2599
819.8000	72.1529
819.7000	72.0542
819.6000	71.9518
819.5000	71.846
819.4000	71.7479
819.3000	71.6462
819.2000	71.5455
819.1000	71.4592
819.0000	71.3568
818.9000	71.2564
818.8000	71.1669
818.7000	71.0726
818.6000	70.9804
818.5000	70.8985
818.4000	70.8201
818.3000	70.7348
818.2000	70.6552
818.1000	70.5776
818.0000	70.505
817.9000	70.4344
817.8000	70.3661
817.7000	70.2956
817.6000	70.2373
817.5000	70.1726
817.4000	70.1174
817.3000	70.0645
817.2000	70.0148
817.1000	69.9643
817.0000	69.9171
816.9000	69.8702
816.8000	69.8199
816.7000	69.7735
816.6000	69.7351
816.5000	69.6976
816.4000	69.6581
816.3000	69.6245
816.2000	69.5879
816.1000	69.567
816.0000	69.5397
815.9000	69.5177
815.8000	69.4971
815.7000	69.4824
815.6000	69.4639
815.5000	69.4483
815.4000	69.4375
815.3000	69.4299
815.2000	69.426
815.1000	69.4335
815.0000	69.4353
814.9000	69.4389
814.8000	69.4493
814.7000	69.4603
814.6000	69.4798
814.5000	69.4945
814.4000	69.5112
814.3000	69.5379
814.2000	69.5608
814.1000	69.5827
814.0000	69.6097
813.9000	69.6531
813.8000	69.6988
813.7000	69.7407
813.6000	69.7848
813.5000	69.8294
813.4000	69.8755
813.3000	69.9256
813.2000	69.9772
813.1000	70.0308
813.0000	70.0865
812.9000	70.1511
812.8000	70.2125
812.7000	70.2746
812.6000	70.3478
812.5000	70.4176
812.4000	70.4946
812.3000	70.5651
812.2000	70.6425
812.1000	70.7235
812.0000	70.8
811.9000	70.8736
811.8000	70.9595
811.7000	71.0462
811.6000	71.1338
811.5000	71.2302
811.4000	71.3178
811.3000	71.4078
811.2000	71.4977
811.1000	71.5943
811.0000	71.695
810.9000	71.8023
810.8000	71.9091
810.7000	72.0172
810.6000	72.1153
810.5000	72.225
810.4000	72.341
810.3000	72.4585
810.2000	72.5745
810.1000	72.6919
810.0000	72.8077
809.9000	72.9231
809.8000	73.0486
809.7000	73.1706
809.6000	73.2965
809.5000	73.4139
809.4000	73.5344
809.3000	73.6554
809.2000	73.7743
809.1000	73.8957
809.0000	74.0222
808.9000	74.1448
808.8000	74.2668
808.7000	74.3902
808.6000	74.5153
808.5000	74.6326
808.4000	74.7639
808.3000	74.8868
808.2000	75.0133
808.1000	75.1353
808.0000	75.265
807.9000	75.3957
807.8000	75.5177
807.7000	75.6385
807.6000	75.7595
807.5000	75.8828
807.4000	76.0063
807.3000	76.1223
807.2000	76.2408
807.1000	76.3558
807.0000	76.4768
806.9000	76.5981
806.8000	76.7066
806.7000	76.8236
806.6000	76.9322
806.5000	77.0392
806.4000	77.1383
806.3000	77.2363
806.2000	77.3423
806.1000	77.446
806.0000	77.551
805.9000	77.6495
805.8000	77.7358
805.7000	77.8322
805.6000	77.9233
805.5000	78.0257
805.4000	78.1066
805.3000	78.1951
805.2000	78.2789
805.1000	78.354
805.0000	78.4285
804.9000	78.4995
804.8000	78.5775
804.7000	78.6494
804.6000	78.7051
804.5000	78.7722
804.4000	78.8287
804.3000	78.8865
804.2000	78.9592
804.1000	79.0128
804.0000	79.0644
803.9000	79.0993
803.8000	79.149
803.7000	79.1865
803.6000	79.2127
803.5000	79.2487
803.4000	79.2774
803.3000	79.3186
803.2000	79.3428
803.1000	79.362
803.0000	79.3874
802.9000	79.3951
802.8000	79.4077
802.7000	79.4127
802.6000	79.4085
802.5000	79.4079
802.4000	79.4061
802.3000	79.4026
802.2000	79.3872
802.1000	79.3766
802.0000	79.3715
801.9000	79.3559
801.8000	79.3403
801.7000	79.3071
801.6000	79.274
801.5000	79.2415
801.4000	79.1978
801.3000	79.1628
801.2000	79.1236
801.1000	79.0844
801.0000	79.0454
800.9000	78.9897
800.8000	78.9369
800.7000	78.884
800.6000	78.824
800.5000	78.7587
800.4000	78.69
800.3000	78.619
800.2000	78.5433
800.1000	78.4676
800.0000	78.3915
799.9000	78.3186
799.8000	78.2418
799.7000	78.1517
799.6000	78.0584
799.5000	77.9605
799.4000	77.8537
799.3000	77.7678
799.2000	77.6659
799.1000	77.5609
799.0000	77.4628
798.9000	77.352
798.8000	77.246
798.7000	77.139
798.6000	77.0306
798.5000	76.9222
798.4000	76.8056
798.3000	76.6881
798.2000	76.5716
798.1000	76.4544
798.0000	76.3392
797.9000	76.2203
797.8000	76.1068
797.7000	75.98
797.6000	75.8582
797.5000	75.7413
797.4000	75.6128
797.3000	75.4946
797.2000	75.3691
797.1000	75.2434
797.0000	75.1173
796.9000	74.9884
796.8000	74.8711
796.7000	74.7475
796.6000	74.618
796.5000	74.4945
796.4000	74.3691
796.3000	74.2457
796.2000	74.121
796.1000	73.9928
796.0000	73.867
795.9000	73.7396
795.8000	73.6079
795.7000	73.4827
795.6000	73.3585
795.5000	73.2363
795.4000	73.11
795.3000	72.9926
795.2000	72.8594
795.1000	72.7355
795.0000	72.6226
794.9000	72.5077
794.8000	72.3921
794.7000	72.2736
794.6000	72.1559
794.5000	72.0473
794.4000	71.9359
794.3000	71.8233
794.2000	71.7242
794.1000	71.6209
794.0000	71.5188
793.9000	71.4166
793.8000	71.3246
793.7000	71.2261
793.6000	71.1444
793.5000	71.0558
793.4000	70.968
793.3000	70.8818
793.2000	70.8029
793.1000	70.7296
793.0000	70.6567
792.9000	70.5792
792.8000	70.5095
792.7000	70.439
792.6000	70.3744
792.5000	70.3109
792.4000	70.2491
792.3000	70.1928
792.2000	70.1375
792.1000	70.0859
792.0000	70.0284
791.9000	69.9819
791.8000	69.9322
791.7000	69.8925
791.6000	69.8503
791.5000	69.8116
791.4000	69.7759
791.3000	69.7476
791.2000	69.7267
791.1000	69.7106
791.0000	69.6868
790.9000	69.6769
790.8000	69.6657
790.7000	69.6553
790.6000	69.6449
790.5000	69.6398
790.4000	69.6468
790.3000	69.6528
790.2000	69.6649
790.1000	69.6794
790.0000	69.6963
789.9000	69.7103
789.8000	69.7295
789.7000	69.7522
789.6000	69.7746
789.5000	69.7972
789.4000	69.8304
789.3000	69.8543
789.2000	69.8916
789.1000	69.9319
789.0000	69.9777
788.9000	70.0278
788.8000	70.0727
788.7000	70.1199
788.6000	70.1742
788.5000	70.2257
788.4000	70.2776
788.3000	70.3416
788.2000	70.4001
788.1000	70.4734
788.0000	70.5387
787.9000	70.618
787.8000	70.6966
787.7000	70.7785
787.6000	70.8574
787.5000	70.9435
787.4000	71.0303
787.3000	71.1224
787.2000	71.2121
787.1000	71.3099
787.0000	71.4061
786.9000	71.4997
786.8000	71.5985
786.7000	71.7001
786.6000	71.8111
786.5000	71.9096
786.4000	72.0212
786.3000	72.1279
786.2000	72.2364
786.1000	72.3481
786.0000	72.4686
785.9000	72.582
785.8000	72.699
785.7000	72.8137
785.6000	72.9332
785.5000	73.0495
785.4000	73.1684
785.3000	73.2955
785.2000	73.4246
785.1000	73.5434
785.0000	73.6716
784.9000	73.8018
784.8000	73.9268
784.7000	74.0489
784.6000	74.1778
784.5000	74.2988
784.4000	74.4238
784.3000	74.5457
784.2000	74.6711
784.1000	74.7918
784.0000	74.9176
783.9000	75.0463
783.8000	75.1751
783.7000	75.2938
783.6000	75.4183
783.5000	75.5493
783.4000	75.669
783.3000	75.7924
783.2000	75.9192
783.1000	76.0464
783.0000	76.1652
782.9000	76.2889
782.8000	76.4028
782.7000	76.5269
782.6000	76.6439
782.5000	76.7639
782.4000	76.8783
782.3000	76.989
782.2000	77.0922
782.1000	77.2118
782.0000	77.319
781.9000	77.4226
781.8000	77.5298
781.7000	77.6312
781.6000	77.7254
781.5000	77.8249
781.4000	77.9227
781.3000	78.023
781.2000	78.1195
781.1000	78.2025
781.0000	78.2875
780.9000	78.3654
780.8000	78.4487
780.7000	78.5253
780.6000	78.6083
780.5000	78.6744
780.4000	78.7398
780.3000	78.8045
780.2000	78.8631
780.1000	78.9159
780.0000	78.9698
779.9000	79.0179
779.8000	79.0579
779.7000	79.0999
779.6000	79.1356
779.5000	79.169
779.4000	79.2001
779.3000	79.2346
779.2000	79.262
779.1000	79.2866
779.0000	79.305
778.9000	79.3195
778.8000	79.3361
778.7000	79.3432
778.6000	79.3484
778.5000	79.355
778.4000	79.3533
778.3000	79.3459
778.2000	79.3335
778.1000	79.3181
778.0000	79.2978
777.9000	79.2816
777.8000	79.2537
777.7000	79.2221
777.6000	79.1859
777.5000	79.149
777.4000	79.1029
777.3000	79.0579
777.2000	79.0061
777.1000	78.9554
777.0000	78.8983
776.9000	78.8375
776.8000	78.7744
776.7000	78.7088
776.6000	78.6469
776.5000	78.574
776.4000	78.5052
776.3000	78.4275
776.2000	78.3525
776.1000	78.2688
776.0000	78.1792
775.9000	78.0935
775.8000	78.0025
775.7000	77.9072
775.6000	77.8091
775.5000	77.715
775.4000	77.612
775.3000	77.5096
775.2000	77.4044
775.1000	77.2939
775.0000	77.1889
774.9000	77.0795
774.8000	76.9659
774.7000	76.845
774.6000	76.7233
774.5000	76.6039
774.4000	76.4832
774.3000	76.3524
774.2000	76.2335
774.1000	76.1136
774.0000	75.9904
773.9000	75.8577
773.8000	75.7349
773.7000	75.6062
773.6000	75.4816
773.5000	75.3607
773.4000	75.2317
773.3000	75.102
773.2000	74.9717
773.1000	74.8439
773.0000	74.7252
772.9000	74.5986
772.8000	74.4805
772.7000	74.3535
772.6000	74.227
772.5000	74.1008
772.4000	73.9751
772.3000	73.8502
772.2000	73.7225
772.1000	73.6019
772.0000	73.4807
771.9000	73.3547
771.8000	73.2283
771.7000	73.1042
771.6000	72.9836
771.5000	72.8694
771.4000	72.7466
771.3000	72.6331
771.2000	72.5151
771.1000	72.4043
771.0000	72.2835
770.9000	72.1643
770.8000	72.055
770.7000	71.9492
770.6000	71.8415
770.5000	71.737
770.4000	71.6296
770.3000	71.5179
770.2000	71.4192
770.1000	71.3226
770.0000	71.2246
769.9000	71.1346
769.8000	71.0411
769.7000	70.9512
769.6000	70.8646
769.5000	70.7827
769.4000	70.7107
769.3000	70.6425
769.2000	70.5726
769.1000	70.5042
769.0000	70.4404
768.9000	70.3744
768.8000	70.3161
768.7000	70.2732
768.6000	70.2179
768.5000	70.1694
768.4000	70.1289
768.3000	70.0829
768.2000	70.0446
768.1000	70.0114
768.0000	69.9772
767.9000	69.9526
767.8000	69.9284
767.7000	69.9066
767.6000	69.8813
767.5000	69.8697
767.4000	69.8593
767.3000	69.8503
767.2000	69.8404
767.1000	69.8369
767.0000	69.8425
766.9000	69.845
766.8000	69.8516
766.7000	69.8613
766.6000	69.8771
766.5000	69.8943
766.4000	69.9144
766.3000	69.9349
766.2000	69.958
766.1000	69.9857
766.0000	70.0208
765.9000	70.0554
765.8000	70.0971
765.7000	70.1401
765.6000	70.195
765.5000	70.2438
765.4000	70.3005
765.3000	70.3621
765.2000	70.4204
765.1000	70.4883
765.0000	70.5538
764.9000	70.6223
764.8000	70.697
764.7000	70.7724
764.6000	70.8547
764.5000	70.9382
764.4000	71.0258
764.3000	71.1104
764.2000	71.2009
764.1000	71.297
764.0000	71.3874
763.9000	71.4896
763.8000	71.5893
763.7000	71.6976
763.6000	71.801
763.5000	71.9047
763.4000	72.0183
763.3000	72.1325
763.2000	72.2472
763.1000	72.3656
763.0000	72.4867
762.9000	72.6082
762.8000	72.7331
762.7000	72.8651
762.6000	72.9919
762.5000	73.1133
762.4000	73.2455
762.3000	73.3722
762.2000	73.4998
762.1000	73.6276
762.0000	73.76
761.9000	73.8948
761.8000	74.0196
761.7000	74.1483
761.6000	74.2848
761.5000	74.4152
761.4000	74.5432
761.3000	74.6784
761.2000	74.8073
761.1000	74.9306
761.0000	75.058
760.9000	75.1947
760.8000	75.3287
760.7000	75.4626
760.6000	75.5938
760.5000	75.7163
760.4000	75.8499
760.3000	75.977
760.2000	76.1087
760.1000	76.2368
760.0000	76.363
759.9000	76.4841
759.8000	76.6093
759.7000	76.7248
759.6000	76.846
759.5000	76.9649
759.4000	77.0796
759.3000	77.189
759.2000	77.2943
759.1000	77.4002
759.0000	77.5087
758.9000	77.6107
758.8000	77.7098
758.7000	77.8099
758.6000	77.9061
758.5000	77.9992
758.4000	78.0883
758.3000	78.1815
758.2000	78.2684
758.1000	78.3475
758.0000	78.4244
757.9000	78.5033
757.8000	78.5767
757.7000	78.6477
757.6000	78.7132
757.5000	78.7713
757.4000	78.8258
757.3000	78.8899
757.2000	78.9335
757.1000	78.9775
757.0000	79.0199
756.9000	79.0583
756.8000	79.0935
756.7000	79.1238
756.6000	79.1463
756.5000	79.1707
756.4000	79.1879
756.3000	79.1987
756.2000	79.2151
756.1000	79.2263
756.0000	79.2296
755.9000	79.2355
755.8000	79.2309
755.7000	79.2189
755.6000	79.2119
755.5000	79.1975
755.4000	79.1781
755.3000	79.1525
755.2000	79.1252
755.1000	79.0905
755.0000	79.0582
754.9000	79.0229
754.8000	78.9831
754.7000	78.936
754.6000	78.8786
754.5000	78.8271
754.4000	78.7717
754.3000	78.7067
754.2000	78.642
754.1000	78.5664
754.0000	78.5027
753.9000	78.4329
753.8000	78.3572
753.7000	78.277
753.6000	78.1896
753.5000	78.1019
753.4000	78.0075
753.3000	77.9153
753.2000	77.8173
753.1000	77.7144
753.0000	77.6092
752.9000	77.4985
752.8000	77.3868
752.7000	77.2788
752.6000	77.161
752.5000	77.0488
752.4000	76.9191
752.3000	76.792
752.2000	76.6684
752.1000	76.5399
752.0000	76.4114
751.9000	76.2854
751.8000	76.1555
751.7000	76.0222
751.6000	75.8891
751.5000	75.7652
751.4000	75.6371
751.3000	75.502
751.2000	75.374
751.1000	75.2361
751.0000	75.1088
750.9000	74.9752
750.8000	74.8423
750.7000	74.7079
750.6000	74.5688
750.5000	74.4388
750.4000	74.3099
750.3000	74.1735
750.2000	74.0434
750.1000	73.9067
750.0000	73.7703
749.9000	73.6307
749.8000	73.4924
749.7000	73.3596
749.6000	73.2235
749.5000	73.0939
749.4000	72.9612
749.3000	72.8307
749.2000	72.7063
749.1000	72.5809
749.0000	72.4655
748.9000	72.3458
748.8000	72.2244
748.7000	72.1074
748.6000	71.9893
748.5000	71.8816
748.4000	71.7785
748.3000	71.6783
748.2000	71.582
748.1000	71.4789
748.0000	71.3812
747.9000	71.2858
747.8000	71.1991
747.7000	71.1159
747.6000	71.0352
747.5000	70.9542
747.4000	70.8713
747.3000	70.7942
747.2000	70.7207
747.1000	70.6569
747.0000	70.5928
746.9000	70.5293
746.8000	70.469
746.7000	70.4093
746.6000	70.3563
746.5000	70.311
746.4000	70.2712
746.3000	70.2296
746.2000	70.1872
746.1000	70.1567
746.0000	70.1256
745.9000	70.1036
745.8000	70.0837
745.7000	70.0687
745.6000	70.0565
745.5000	70.046
745.4000	70.0421
745.3000	70.0407
745.2000	70.0403
745.1000	70.0447
745.0000	70.0573
744.9000	70.0725
744.8000	70.0902
744.7000	70.1084
744.6000	70.1387
744.5000	70.1646
744.4000	70.1987
744.3000	70.2299
744.2000	70.2672
744.1000	70.3037
744.0000	70.3528
743.9000	70.4035
743.8000	70.4588
743.7000	70.5183
743.6000	70.5832
743.5000	70.6486
743.4000	70.715
743.3000	70.787
743.2000	70.8608
743.1000	70.9441
743.0000	71.0282
742.9000	71.1198
742.8000	71.2093
742.7000	71.3065
742.6000	71.401
742.5000	71.5056
742.4000	71.608
742.3000	71.7113
742.2000	71.8187
742.1000	71.9263
742.0000	72.0387
741.9000	72.1549
741.8000	72.274
741.7000	72.3938
741.6000	72.5119
741.5000	72.6321
741.4000	72.7537
741.3000	72.8715
741.2000	72.9921
741.1000	73.1181
741.0000	73.2524
740.9000	73.3785
740.8000	73.504
740.7000	73.6326
740.6000	73.7609
740.5000	73.8979
740.4000	74.0341
740.3000	74.1706
740.2000	74.3029
740.1000	74.4374
740.0000	74.6416
739.9000	74.7762
739.8000	74.9152
739.7000	75.0524
739.6000	75.1924
739.5000	75.3272
739.4000	75.4608
739.3000	75.5968
739.2000	75.727
739.1000	75.8638
739.0000	75.9944
738.9000	76.1244
738.8000	76.2503
738.7000	76.3838
738.6000	76.514
738.5000	76.6415
738.4000	76.7528
738.3000	76.8708
738.2000	76.9843
738.1000	77.1036
738.0000	77.22
737.9000	77.3319
737.8000	77.4462
737.7000	77.5513
737.6000	77.6592
737.5000	77.752
737.4000	77.8503
737.3000	77.9487
737.2000	78.0414
737.1000	78.1296
737.0000	78.2116
736.9000	78.2922
736.8000	78.3776
736.7000	78.4556
736.6000	78.5299
736.5000	78.6005
736.4000	78.6672
736.3000	78.7334
736.2000	78.79
736.1000	78.847
736.0000	78.8947
735.9000	78.9476
735.8000	78.9914
735.7000	79.029
735.6000	79.06
735.5000	79.0847
735.4000	79.1122
735.3000	79.1345
735.2000	79.148
735.1000	79.1601
735.0000	79.1671
734.9000	79.1715
734.8000	79.1674
734.7000	79.1585
734.6000	79.1468
734.5000	79.1289
734.4000	79.11
734.3000	79.0839
734.2000	79.059
734.1000	79.0255
734.0000	78.9939
733.9000	78.9523
733.8000	78.9061
733.7000	78.8564
733.6000	78.8026
733.5000	78.7377
733.4000	78.6798
733.3000	78.6142
733.2000	78.5463
733.1000	78.4744
733.0000	78.3975
732.9000	78.3194
732.8000	78.2325
732.7000	78.1484
732.6000	78.058
732.5000	77.9644
732.4000	77.8655
732.3000	77.768
732.2000	77.6656
732.1000	77.5579
732.0000	77.456
731.9000	77.3506
731.8000	77.2359
731.7000	77.1216
731.6000	76.9996
731.5000	76.8791
731.4000	76.7557
731.3000	76.6318
731.2000	76.511
731.1000	76.3824
731.0000	76.255
730.9000	76.1219
730.8000	75.9908
730.7000	75.8593
730.6000	75.7267
730.5000	75.5965
730.4000	75.4583
730.3000	75.3238
730.2000	75.1879
730.1000	75.0503
730.0000	74.9214
729.9000	74.781
729.8000	74.6466
729.7000	74.5091
729.6000	74.3743
729.5000	74.2378
729.4000	74.0992
729.3000	73.9641
729.2000	73.8318
729.1000	73.6967
729.0000	73.5639
728.9000	73.4328
728.8000	73.3011
728.7000	73.1731
728.6000	73.0476
728.5000	72.9191
728.4000	72.7905
728.3000	72.6699
728.2000	72.5471
728.1000	72.431
728.0000	72.3148
727.9000	72.1977
727.8000	72.086
727.7000	71.9838
727.6000	71.8751
727.5000	71.7753
727.4000	71.671
727.3000	71.5735
727.2000	71.4806
727.1000	71.3889
727.0000	71.2948
726.9000	71.2092
726.8000	71.1268
726.7000	71.0496
726.6000	70.9771
726.5000	70.9043
726.4000	70.8338
726.3000	70.7718
726.2000	70.7142
726.1000	70.6486
726.0000	70.59
725.9000	70.5376
725.8000	70.4895
725.7000	70.4463
725.6000	70.4016
725.5000	70.3676
725.4000	70.3352
725.3000	70.3075
725.2000	70.283
725.1000	70.2663
725.0000	70.2464
724.9000	70.2343
724.8000	70.2235
724.7000	70.2192
724.6000	70.2163
724.5000	70.2244
724.4000	70.24
724.3000	70.2528
724.2000	70.276
724.1000	70.2972
724.0000	70.3322
723.9000	70.3598
723.8000	70.3999
723.7000	70.4406
723.6000	70.4862
723.5000	70.5337
723.4000	70.5897
723.3000	70.6476
723.2000	70.7109
723.1000	70.779
723.0000	70.8518
722.9000	70.9298
722.8000	71.009
722.7000	71.0922
722.6000	71.1765
722.5000	71.2644
722.4000	71.352
722.3000	71.4492
722.2000	71.5429
722.1000	71.6467
722.0000	71.7487
721.9000	71.8552
721.8000	71.9644
721.7000	72.0762
721.6000	72.1949
721.5000	72.3123
721.4000	72.4281
721.3000	72.5456
721.2000	72.6677
721.1000	72.7946
721.0000	72.9245
720.9000	73.0507
720.8000	73.1803
720.7000	73.3098
720.6000	73.4436
720.5000	73.5793
720.4000	73.7142
720.3000	73.8491
720.2000	73.9892
720.1000	74.1323
720.0000	74.2705
719.9000	74.4087
719.8000	74.5512
719.7000	74.6948
719.6000	74.8369
719.5000	74.9726
719.4000	75.1081
719.3000	75.2506
719.2000	75.3931
719.1000	75.5306
719.0000	75.6688
718.9000	75.8024
718.8000	75.9407
718.7000	76.0797
718.6000	76.212
718.5000	76.3352
718.4000	76.4649
718.3000	76.5962
718.2000	76.7228
718.1000	76.844
718.0000	76.9636
717.9000	77.0891
717.8000	77.2097
717.7000	77.323
717.6000	77.4285
717.5000	77.5363
717.4000	77.6465
717.3000	77.7487
717.2000	77.8459
717.1000	77.9345
717.0000	78.0278
716.9000	78.1224
716.8000	78.2015
716.7000	78.2794
716.6000	78.3599
716.5000	78.4348
716.4000	78.5056
716.3000	78.5657
716.2000	78.622
716.1000	78.6813
716.0000	78.7412
715.9000	78.7987
715.8000	78.8472
715.7000	78.8914
715.6000	78.9335
715.5000	78.9771
715.4000	79.0048
715.3000	79.0329
715.2000	79.0542
715.1000	79.0737
715.0000	79.0824
714.9000	79.0841
714.8000	79.0806
714.7000	79.0856
714.6000	79.0848
714.5000	79.0766
714.4000	79.0612
714.3000	79.0401
714.2000	79.0136
714.1000	78.9833
714.0000	78.9485
713.9000	78.9044
713.8000	78.8603
713.7000	78.8094
713.6000	78.7567
713.5000	78.6949
713.4000	78.6334
713.3000	78.5739
713.2000	78.5093
713.1000	78.4318
713.0000	78.3534
712.9000	78.2737
712.8000	78.1896
712.7000	78.1023
712.6000	78.0106
712.5000	77.9164
712.4000	77.8173
712.3000	77.7173
712.2000	77.612
712.1000	77.5001
712.0000	77.3888
711.9000	77.2741
711.8000	77.1513
711.7000	77.027
711.6000	76.9028
711.5000	76.7725
711.4000	76.6451
711.3000	76.5121
711.2000	76.3806
711.1000	76.242
711.0000	76.1038
710.9000	75.9646
710.8000	75.8252
710.7000	75.6857
710.6000	75.5504
710.5000	75.4148
710.4000	75.2828
710.3000	75.1436
710.2000	75.0023
710.1000	74.8596
710.0000	74.721
709.9000	74.5814
709.8000	74.4389
709.7000	74.2982
709.6000	74.1582
709.5000	74.0237
709.4000	73.8869
709.3000	73.7536
709.2000	73.6237
709.1000	73.4922
709.0000	73.3603
708.9000	73.2321
708.8000	73.0991
708.7000	72.9821
708.6000	72.8633
708.5000	72.7507
708.4000	72.6365
708.3000	72.5246
708.2000	72.4193
708.1000	72.314
708.0000	72.2115
707.9000	72.1123
707.8000	72.0158
707.7000	71.9194
707.6000	71.8261
707.5000	71.7391
707.4000	71.654
707.3000	71.5724
707.2000	71.498
707.1000	71.4186
707.0000	71.3537
706.9000	71.285
706.8000	71.2225
706.7000	71.1659
706.6000	71.1098
706.5000	71.0624
706.4000	71.0135
706.3000	70.9748
706.2000	70.9416
706.1000	70.9116
706.0000	70.8846
705.9000	70.864
705.8000	70.8477
705.7000	70.8378
705.6000	70.8282
705.5000	70.8235
705.4000	70.8286
705.3000	70.8406
705.2000	70.8544
705.1000	70.8752
705.0000	70.9002
704.9000	70.9283
704.8000	70.9657
704.7000	71.0027
704.6000	71.0428
704.5000	71.0917
704.4000	71.1401
704.3000	71.1911
704.2000	71.2462
704.1000	71.3056
704.0000	71.3782
703.9000	71.4518
703.8000	71.5181
703.7000	71.5948
703.6000	71.6741
703.5000	71.7601
703.4000	71.8523
703.3000	71.9417
703.2000	72.0335
703.1000	72.1309
703.0000	72.2358
702.9000	72.3429
702.8000	72.4628
702.7000	72.5821
702.6000	72.7031
702.5000	72.8279
702.4000	72.9494
702.3000	73.081
702.2000	73.2128
702.1000	73.3493
702.0000	73.4858
701.9000	73.6257
701.8000	73.7606
701.7000	73.9073
701.6000	74.0553
701.5000	74.2049
701.4000	74.3589
701.3000	74.5017
701.2000	74.6462
701.1000	74.7884
701.0000	74.9402
700.9000	75.0903
700.8000	75.2385
700.7000	75.3875
700.6000	75.5443
700.5000	75.6885
700.4000	75.8402
700.3000	75.9851
700.2000	76.137
700.1000	76.2846
700.0000	76.4324
699.9000	76.5695
699.8000	76.7007
699.7000	76.8423
699.6000	76.9779
699.5000	77.1186
699.4000	77.2514
699.3000	77.3817
699.2000	77.5142
699.1000	77.6362
699.0000	77.7564
698.9000	77.8719
698.8000	77.9891
698.7000	78.1019
698.6000	78.2063
698.5000	78.304
698.4000	78.4013
698.3000	78.496
698.2000	78.5886
698.1000	78.677
698.0000	78.7639
697.9000	78.8397
697.8000	78.9089
697.7000	78.9815
697.6000	79.0464
697.5000	79.1054
697.4000	79.1576
697.3000	79.2157
697.2000	79.2546
697.1000	79.2969
697.0000	79.3299
696.9000	79.3622
696.8000	79.3863
696.7000	79.4146
696.6000	79.429
696.5000	79.4393
696.4000	79.4389
696.3000	79.4338
696.2000	79.4272
696.1000	79.4055
696.0000	79.3745
695.9000	79.3449
695.8000	79.3126
695.7000	79.266
695.6000	79.2184
695.5000	79.1621
695.4000	79.1007
695.3000	79.0341
695.2000	78.9623
695.1000	78.8844
695.0000	78.8041
694.9000	78.7148
694.8000	78.622
694.7000	78.5338
694.6000	78.4338
694.5000	78.3257
694.4000	78.2233
694.3000	78.1096
694.2000	77.9912
694.1000	77.8754
694.0000	77.7546
693.9000	77.6275
693.8000	77.4993
693.7000	77.3696
693.6000	77.2324
693.5000	77.0896
693.4000	76.9423
693.3000	76.7944
693.2000	76.6471
693.1000	76.4877
693.0000	76.3316
692.9000	76.1769
692.8000	76.0169
692.7000	75.859
692.6000	75.6949
692.5000	75.53
692.4000	75.3607
692.3000	75.1947
692.2000	75.0294
692.1000	74.8568
692.0000	74.687
691.9000	74.5162
691.8000	74.3426
691.7000	74.1753
691.6000	74.0043
691.5000	73.8357
691.4000	73.6657
691.3000	73.4952
691.2000	73.3284
691.1000	73.1587
691.0000	72.9928
690.9000	72.8206
690.8000	72.6566
690.7000	72.4934
690.6000	72.3327
690.5000	72.1772
690.4000	72.0174
690.3000	71.8604
690.2000	71.7116
690.1000	71.5588
690.0000	71.4119
689.9000	71.2671
689.8000	71.1314
689.7000	70.9943
689.6000	70.8595
689.5000	70.7341
689.4000	70.6091
689.3000	70.4909
689.2000	70.372
689.1000	70.2588
689.0000	70.1465
688.9000	70.0339
688.8000	69.9327
688.7000	69.8367
688.6000	69.7451
688.5000	69.657
688.4000	69.5779
688.3000	69.5017
688.2000	69.4276
688.1000	69.36
688.0000	69.2986
687.9000	69.2444
687.8000	69.1987
687.7000	69.1589
687.6000	69.1276
687.5000	69.0931
687.4000	69.0673
687.3000	69.0526
687.2000	69.0408
687.1000	69.0339
687.0000	69.0289
686.9000	69.0312
686.8000	69.0346
686.7000	69.0488
686.6000	69.0669
686.5000	69.0913
686.4000	69.1209
686.3000	69.1513
686.2000	69.1861
686.1000	69.2221
686.0000	69.2704
685.9000	69.3221
685.8000	69.3776
685.7000	69.437
685.6000	69.5032
685.5000	69.5726
685.4000	69.6551
685.3000	69.739
685.2000	69.8289
685.1000	69.9176
685.0000	70.0095
684.9000	70.1088
684.8000	70.209
684.7000	70.3116
684.6000	70.419
684.5000	70.5361
684.4000	70.6507
684.3000	70.773
684.2000	70.8943
684.1000	71.0174
684.0000	71.1442
683.9000	71.2755
683.8000	71.401
683.7000	71.5312
683.6000	71.6651
683.5000	71.8068
683.4000	71.9522
683.3000	72.0958
683.2000	72.2395
683.1000	72.3876
683.0000	72.5419
682.9000	72.6916
682.8000	72.8444
682.7000	72.9982
682.6000	73.1577
682.5000	73.3195
682.4000	73.4797
682.3000	73.6357
682.2000	73.7997
682.1000	73.9606
682.0000	74.1219
681.9000	74.2778
681.8000	74.4376
681.7000	74.5998
681.6000	74.7614
681.5000	74.9228
681.4000	75.0774
681.3000	75.2347
681.2000	75.3835
681.1000	75.5321
681.0000	75.6855
680.9000	75.8337
680.8000	75.9799
680.7000	76.1278
680.6000	76.2762
680.5000	76.4197
680.4000	76.5582
680.3000	76.6995
680.2000	76.8297
680.1000	76.9575
680.0000	77.0849
679.9000	77.2072
679.8000	77.3275
679.7000	77.4395
679.6000	77.5545
679.5000	77.6597
679.4000	77.753
679.3000	77.8459
679.2000	77.9346
679.1000	78.0144
679.0000	78.0792
678.9000	78.1444
678.8000	78.2056
678.7000	78.2504
678.6000	78.2927
678.5000	78.3276
678.4000	78.3549
678.3000	78.3786
678.2000	78.3888
678.1000	78.4013
678.0000	78.3964
677.9000	78.3931
677.8000	78.3852
677.7000	78.367
677.6000	78.3398
677.5000	78.3079
677.4000	78.2755
677.3000	78.23
677.2000	78.1772
677.1000	78.1259
677.0000	78.0635
676.9000	77.9992
676.8000	77.9281
676.7000	77.8484
676.6000	77.768
676.5000	77.6783
676.4000	77.587
676.3000	77.4865
676.2000	77.3778
676.1000	77.2663
676.0000	77.148
675.9000	77.0339
675.8000	76.9094
675.7000	76.789
675.6000	76.661
675.5000	76.528
675.4000	76.3947
675.3000	76.2597
675.2000	76.1221
675.1000	75.9796
675.0000	75.8324
674.9000	75.6835
674.8000	75.536
674.7000	75.3863
674.6000	75.2394
674.5000	75.0924
674.4000	74.9434
674.3000	74.7956
674.2000	74.6446
674.1000	74.4886
674.0000	74.3392
673.9000	74.1892
673.8000	74.0438
673.7000	73.8961
673.6000	73.749
673.5000	73.6054
673.4000	73.4633
673.3000	73.3271
673.2000	73.1869
673.1000	73.0506
673.0000	72.9141
672.9000	72.7753
672.8000	72.6475
672.7000	72.5195
672.6000	72.3925
672.5000	72.2724
672.4000	72.1516
672.3000	72.0396
672.2000	71.9293
672.1000	71.8157
672.0000	71.7104
671.9000	71.6082
671.8000	71.5119
671.7000	71.415
671.6000	71.3308
671.5000	71.2498
671.4000	71.1681
671.3000	71.0982
671.2000	71.0256
671.1000	70.9575
671.0000	70.8984
670.9000	70.843
670.8000	70.789
670.7000	70.7377
670.6000	70.6937
670.5000	70.6601
670.4000	70.6278
670.3000	70.6032
670.2000	70.5821
670.1000	70.5622
670.0000	70.5487
669.9000	70.5427
669.8000	70.5444
669.7000	70.548
669.6000	70.5624
669.5000	70.5767
669.4000	70.5967
669.3000	70.6235
669.2000	70.656
669.1000	70.6934
669.0000	70.7333
668.9000	70.7774
668.8000	70.8272
668.7000	70.8851
668.6000	70.9466
668.5000	71.0174
668.4000	71.0886
668.3000	71.1587
668.2000	71.2393
668.1000	71.3237
668.0000	71.4096
667.9000	71.5021
667.8000	71.6012
667.7000	71.6961
667.6000	71.8039
667.5000	71.9138
667.4000	72.0246
667.3000	72.1344
667.2000	72.2564
667.1000	72.3738
667.0000	72.4944
666.9000	72.6162
666.8000	72.7398
666.7000	72.8736
666.6000	73.0008
666.5000	73.1358
666.4000	73.2704
666.3000	73.4046
666.2000	73.5405
666.1000	73.6887
666.0000	73.8305
665.9000	73.9754
665.8000	74.1282
665.7000	74.2885
665.6000	74.4358
665.5000	74.5838
665.4000	74.7344
665.3000	74.8853
665.2000	75.035
665.1000	75.1802
665.0000	75.3284
664.9000	75.4724
664.8000	75.6136
664.7000	75.7548
664.6000	75.8952
664.5000	76.0292
664.4000	76.1614
664.3000	76.2901
664.2000	76.4124
664.1000	76.5275
664.0000	76.6424
663.9000	76.7551
663.8000	76.8686
663.7000	76.9755
663.6000	77.0823
663.5000	77.1852
663.4000	77.29
663.3000	77.3842
663.2000	77.476
663.1000	77.5663
663.0000	77.6513
662.9000	77.73
662.8000	77.8056
662.7000	77.872
662.6000	77.9353
662.5000	77.9964
662.4000	78.0517
662.3000	78.1056
662.2000	78.1499
662.1000	78.1914
662.0000	78.2293
661.9000	78.258
661.8000	78.278
661.7000	78.2936
661.6000	78.3062
661.5000	78.3099
661.4000	78.3018
661.3000	78.2943
661.2000	78.2754
661.1000	78.252
661.0000	78.2233
660.9000	78.191
660.8000	78.1523
660.7000	78.1055
660.6000	78.0553
660.5000	77.9968
660.4000	77.9302
660.3000	77.8587
660.2000	77.7878
660.1000	77.7113
660.0000	77.623
659.9000	77.5298
659.8000	77.443
659.7000	77.3404
659.6000	77.2404
659.5000	77.1421
659.4000	77.0334
659.3000	76.9135
659.2000	76.7967
659.1000	76.6763
659.0000	76.5512
658.9000	76.4258
658.8000	76.2949
658.7000	76.161
658.6000	76.0249
658.5000	75.885
658.4000	75.7472
658.3000	75.6088
658.2000	75.4632
658.1000	75.3198
658.0000	75.1725
657.9000	75.0206
657.8000	74.8758
657.7000	74.7353
657.6000	74.587
657.5000	74.4391
657.4000	74.2874
657.3000	74.135
657.2000	73.9856
657.1000	73.8435
657.0000	73.6963
656.9000	73.5559
656.8000	73.4184
656.7000	73.2806
656.6000	73.1404
656.5000	73.0081
656.4000	72.8775
656.3000	72.7462
656.2000	72.6182
656.1000	72.4874
656.0000	72.3619
655.9000	72.2406
655.8000	72.1257
655.7000	72.0194
655.6000	71.9107
655.5000	71.8034
655.4000	71.7041
655.3000	71.6052
655.2000	71.5066
655.1000	71.4188
655.0000	71.3403
654.9000	71.2626
654.8000	71.1911
654.7000	71.124
654.6000	71.06
654.5000	71.0054
654.4000	70.9572
654.3000	70.914
654.2000	70.8734
654.1000	70.8355
654.0000	70.8089
653.9000	70.7859
653.8000	70.7635
653.7000	70.75
653.6000	70.746
653.5000	70.7396
653.4000	70.7395
653.3000	70.7487
653.2000	70.7625
653.1000	70.7851
653.0000	70.8088
652.9000	70.8361
652.8000	70.8698
652.7000	70.912
652.6000	70.9638
652.5000	71.0211
652.4000	71.0853
652.3000	71.152
652.2000	71.2273
652.1000	71.305
652.0000	71.3873
651.9000	71.4776
651.8000	71.5715
651.7000	71.6696
651.6000	71.77
651.5000	71.8698
651.4000	71.9772
651.3000	72.0932
651.2000	72.211
651.1000	72.3279
651.0000	72.4452
650.9000	72.5696
650.8000	72.6892
650.7000	72.8228
650.6000	72.9552
650.5000	73.0864
650.4000	73.222
650.3000	73.3604
650.2000	73.4995
650.1000	73.6367
650.0000	73.773
649.9000	73.9215
649.8000	74.067
649.7000	74.215
649.6000	74.3593
649.5000	74.51
649.4000	74.6606
649.3000	74.8064
649.2000	74.9517
649.1000	75.0958
649.0000	75.2394
648.9000	75.3849
648.8000	75.529
648.7000	75.6679
648.6000	75.8027
648.5000	75.9372
648.4000	76.0746
648.3000	76.206
648.2000	76.3341
648.1000	76.4572
648.0000	76.5807
647.9000	76.6927
647.8000	76.8011
647.7000	76.9094
647.6000	77.015
647.5000	77.1112
647.4000	77.2048
647.3000	77.2931
647.2000	77.3753
647.1000	77.4527
647.0000	77.5305
646.9000	77.6026
646.8000	77.6659
646.7000	77.721
646.6000	77.7757
646.5000	77.8229
646.4000	77.8637
646.3000	77.8982
646.2000	77.9337
646.1000	77.9617
646.0000	77.9859
645.9000	78.0011
645.8000	78.0079
645.7000	78.0117
645.6000	78.0069
645.5000	77.997
645.4000	77.9818
645.3000	77.953
645.2000	77.9252
645.1000	77.8866
645.0000	77.8434
644.9000	77.7958
644.8000	77.7434
644.7000	77.6878
644.6000	77.6235
644.5000	77.5513
644.4000	77.4741
644.3000	77.3926
644.2000	77.3141
644.1000	77.2225
644.0000	77.1296
643.9000	77.0358
643.8000	76.932
643.7000	76.8321
643.6000	76.7259
643.5000	76.6206
643.4000	76.502
643.3000	76.3818
643.2000	76.2567
643.1000	76.1275
643.0000	75.9954
642.9000	75.8578
642.8000	75.7187
642.7000	75.5802
642.6000	75.4321
642.5000	75.2858
642.4000	75.1421
642.3000	74.9899
642.2000	74.8428
642.1000	74.689
642.0000	74.538
641.9000	74.3844
641.8000	74.2409
641.7000	74.0913
641.6000	73.9434
641.5000	73.7958
641.4000	73.6507
641.3000	73.5079
641.2000	73.3673
641.1000	73.2264
641.0000	73.0866
640.9000	72.9556
640.8000	72.8191
640.7000	72.6918
640.6000	72.563
640.5000	72.4412
640.4000	72.3141
640.3000	72.1963
640.2000	72.0778
640.1000	71.9635
640.0000	71.857
639.9000	71.7582
639.8000	71.6593
639.7000	71.5625
639.6000	71.4739
639.5000	71.3884
639.4000	71.31
639.3000	71.2328
639.2000	71.1641
639.1000	71.1
639.0000	71.0408
638.9000	70.9924
638.8000	70.9507
638.7000	70.9122
638.6000	70.8818
638.5000	70.8612
638.4000	70.8365
638.3000	70.8224
638.2000	70.8085
638.1000	70.8083
638.0000	70.812
637.9000	70.8209
637.8000	70.8369
637.7000	70.8605
637.6000	70.8881
637.5000	70.9201
637.4000	70.9563
637.3000	70.997
637.2000	71.046
637.1000	71.1017
637.0000	71.1621
636.9000	71.2223
636.8000	71.2995
636.7000	71.3725
636.6000	71.4617
636.5000	71.5495
636.4000	71.6392
636.3000	71.7404
636.2000	71.8446
636.1000	71.9512
636.0000	72.0661
635.9000	72.1846
635.8000	72.3101
635.7000	72.4354
635.6000	72.5607
635.5000	72.6945
635.4000	72.8251
635.3000	72.9617
635.2000	73.0972
635.1000	73.2375
635.0000	73.373
634.9000	73.5142
634.8000	73.6595
634.7000	73.8008
634.6000	73.9409
634.5000	74.0869
634.4000	74.2293
634.3000	74.3757
634.2000	74.516
634.1000	74.6574
634.0000	74.8074
633.9000	74.9443
633.8000	75.0888
633.7000	75.2319
633.6000	75.3695
633.5000	75.5078
633.4000	75.6456
633.3000	75.7831
633.2000	75.9177
633.1000	76.0485
633.0000	76.1797
632.9000	76.3027
632.8000	76.42
632.7000	76.5324
632.6000	76.6447
632.5000	76.7543
632.4000	76.8546
632.3000	76.9537
632.2000	77.0424
632.1000	77.1251
632.0000	77.2095
631.9000	77.2887
631.8000	77.3594
631.7000	77.427
631.6000	77.4879
631.5000	77.5414
631.4000	77.5868
631.3000	77.6291
631.2000	77.6684
631.1000	77.7002
631.0000	77.7258
630.9000	77.7462
630.8000	77.7615
630.7000	77.7695
630.6000	77.7708
630.5000	77.7702
630.4000	77.7603
630.3000	77.7385
630.2000	77.7196
630.1000	77.6866
630.0000	77.647
629.9000	77.6033
629.8000	77.5528
629.7000	77.4956
629.6000	77.4326
629.5000	77.3623
629.4000	77.2855
629.3000	77.1984
629.2000	77.1032
629.1000	77.0101
629.0000	76.9097
628.9000	76.8045
628.8000	76.6958
628.7000	76.583
628.6000	76.4631
628.5000	76.3388
628.4000	76.2125
628.3000	76.0805
628.2000	75.9527
628.1000	75.822
628.0000	75.6911
627.9000	75.5571
627.8000	75.4233
627.7000	75.2875
627.6000	75.152
627.5000	75.0131
627.4000	74.8746
627.3000	74.7343
627.2000	74.5972
627.1000	74.458
627.0000	74.3155
626.9000	74.1782
626.8000	74.0367
626.7000	73.8984
626.6000	73.7588
626.5000	73.6168
626.4000	73.4742
626.3000	73.3274
626.2000	73.1893
626.1000	73.0571
626.0000	72.9278
625.9000	72.7971
625.8000	72.6685
625.7000	72.5432
625.6000	72.4215
625.5000	72.2996
625.4000	72.1832
625.3000	72.0714
625.2000	71.9692
625.1000	71.8672
625.0000	71.7679
624.9000	71.6781
624.8000	71.5918
624.7000	71.5179
624.6000	71.4443
624.5000	71.3746
624.4000	71.3074
624.3000	71.2464
624.2000	71.1925
624.1000	71.1476
624.0000	71.0998
623.9000	71.0673
623.8000	71.0402
623.7000	71.0194
623.6000	71.0012
623.5000	70.9924
623.4000	70.9888
623.3000	70.9929
623.2000	71.0007
623.1000	71.0159
623.0000	71.0315
622.9000	71.0563
622.8000	71.0919
622.7000	71.132
622.6000	71.1796
622.5000	71.2319
622.4000	71.2903
622.3000	71.3507
622.2000	71.4162
622.1000	71.4897
622.0000	71.5702
621.9000	71.6571
621.8000	71.7513
621.7000	71.8466
621.6000	71.9506
621.5000	72.057
621.4000	72.17
621.3000	72.2861
621.2000	72.4012
621.1000	72.5277
621.0000	72.6548
620.9000	72.7818
620.8000	72.9134
620.7000	73.0508
620.6000	73.1924
620.5000	73.333
620.4000	73.4717
620.3000	73.6118
620.2000	73.749
620.1000	73.8892
620.0000	74.0326
619.9000	74.1777
619.8000	74.3213
619.7000	74.462
619.6000	74.609
619.5000	74.7467
619.4000	74.8878
619.3000	75.0307
619.2000	75.172
619.1000	75.3096
619.0000	75.4455
618.9000	75.5805
618.8000	75.714
618.7000	75.8439
618.6000	75.9777
618.5000	76.1026
618.4000	76.2229
618.3000	76.3381
618.2000	76.4546
618.1000	76.564
618.0000	76.665
617.9000	76.7623
617.8000	76.8554
617.7000	76.9434
617.6000	77.0282
617.5000	77.1087
617.4000	77.178
617.3000	77.2413
617.2000	77.3048
617.1000	77.3583
617.0000	77.3993
616.9000	77.44
616.8000	77.4733
616.7000	77.4996
616.6000	77.5221
616.5000	77.5403
616.4000	77.5484
616.3000	77.5523
616.2000	77.5475
616.1000	77.5334
616.0000	77.512
615.9000	77.4863
615.8000	77.4538
615.7000	77.4179
615.6000	77.3734
615.5000	77.3237
615.4000	77.271
615.3000	77.212
615.2000	77.1449
615.1000	77.0713
615.0000	76.9933
614.9000	76.9027
614.8000	76.8122
614.7000	76.7149
614.6000	76.6155
614.5000	76.5113
614.4000	76.4024
614.3000	76.2869
614.2000	76.1723
614.1000	76.0478
614.0000	75.9163
613.9000	75.7893
613.8000	75.6549
613.7000	75.5148
613.6000	75.3788
613.5000	75.24
613.4000	75.0923
613.3000	74.9505
613.2000	74.8044
613.1000	74.6625
613.0000	74.5099
612.9000	74.363
612.8000	74.2172
612.7000	74.0704
612.6000	73.9236
612.5000	73.7775
612.4000	73.6309
612.3000	73.4826
612.2000	73.342
612.1000	73.2005
612.0000	73.0608
611.9000	72.927
611.8000	72.7959
611.7000	72.6687
611.6000	72.5439
611.5000	72.4204
611.4000	72.3084
611.3000	72.1973
611.2000	72.0871
611.1000	71.9806
611.0000	71.8781
610.9000	71.7791
610.8000	71.6911
610.7000	71.6099
610.6000	71.5308
610.5000	71.46
610.4000	71.3908
610.3000	71.3303
610.2000	71.2757
610.1000	71.2261
610.0000	71.1839
609.9000	71.1457
609.8000	71.1116
609.7000	71.0852
609.6000	71.0665
609.5000	71.062
609.4000	71.0597
609.3000	71.0651
609.2000	71.0806
609.1000	71.1011
609.0000	71.1227
608.9000	71.1524
608.8000	71.1897
608.7000	71.2252
608.6000	71.2739
608.5000	71.3299
608.4000	71.3881
608.3000	71.4575
608.2000	71.5288
608.1000	71.6062
608.0000	71.6895
607.9000	71.7717
607.8000	71.8647
607.7000	71.9648
607.6000	72.0626
607.5000	72.1625
607.4000	72.2756
607.3000	72.3899
607.2000	72.5093
607.1000	72.6365
607.0000	72.7625
606.9000	72.8876
606.8000	73.0206
606.7000	73.1533
606.6000	73.2923
606.5000	73.4292
606.4000	73.5726
606.3000	73.7136
606.2000	73.8563
606.1000	73.9955
606.0000	74.1405
605.9000	74.286
605.8000	74.4277
605.7000	74.573
605.6000	74.7132
605.5000	74.8477
605.4000	74.9856
605.3000	75.1218
605.2000	75.2606
605.1000	75.3886
605.0000	75.5175
604.9000	75.641
604.8000	75.7598
604.7000	75.8805
604.6000	75.9928
604.5000	76.1068
604.4000	76.2086
604.3000	76.3039
604.2000	76.3997
604.1000	76.4835
604.0000	76.5619
603.9000	76.6414
603.8000	76.7118
603.7000	76.779
603.6000	76.8332
603.5000	76.8855
603.4000	76.9312
603.3000	76.9707
603.2000	76.9973
603.1000	77.026
603.0000	77.0479
602.9000	77.0569
602.8000	77.0659
602.7000	77.0727
602.6000	77.0643
602.5000	77.0535
602.4000	77.0375
602.3000	77.0162
602.2000	76.9819
602.1000	76.9468
602.0000	76.8999
601.9000	76.8554
601.8000	76.7954
601.7000	76.7332
601.6000	76.6682
601.5000	76.5876
601.4000	76.5024
601.3000	76.4195
601.2000	76.3238
601.1000	76.225
601.0000	76.1211
600.9000	76.0175
600.8000	75.9122
600.7000	75.7933
600.6000	75.6765
600.5000	75.5456
600.4000	75.4235
600.3000	75.2874
600.2000	75.1577
600.1000	75.0278
600.0000	74.9889
599.9000	74.8516
599.8000	74.7101
599.7000	74.5699
599.6000	74.4259
599.5000	74.2791
599.4000	74.1323
599.3000	73.9847
599.2000	73.838
599.1000	73.6966
599.0000	73.5547
598.9000	73.4114
598.8000	73.2703
598.7000	73.1353
598.6000	72.9988
598.5000	72.8649
598.4000	72.7373
598.3000	72.6114
598.2000	72.4882
598.1000	72.371
598.0000	72.2575
597.9000	72.1469
597.8000	72.046
597.7000	71.95
597.6000	71.8585
597.5000	71.7682
597.4000	71.6894
597.3000	71.6175
597.2000	71.5499
597.1000	71.4891
597.0000	71.4336
596.9000	71.3823
596.8000	71.3405
596.7000	71.3009
596.6000	71.2755
596.5000	71.2505
596.4000	71.2383
596.3000	71.2385
596.2000	71.2374
596.1000	71.2404
596.0000	71.2535
595.9000	71.2762
595.8000	71.3018
595.7000	71.335
595.6000	71.3727
595.5000	71.4185
595.4000	71.4761
595.3000	71.5391
595.2000	71.6026
595.1000	71.6766
595.0000	71.7552
594.9000	71.8457
594.8000	71.9315
594.7000	72.0221
594.6000	72.1236
594.5000	72.2348
594.4000	72.347
594.3000	72.4655
594.2000	72.586
594.1000	72.7131
594.0000	72.8413
593.9000	72.9716
593.8000	73.1062
593.7000	73.239
593.6000	73.3822
593.5000	73.5259
593.4000	73.6667
593.3000	73.8094
593.2000	73.956
593.1000	74.1068
593.0000	74.2524
592.9000	74.3949
592.8000	74.5374
592.7000	74.6792
592.6000	74.822
592.5000	74.9594
592.4000	75.1017
592.3000	75.2415
592.2000	75.3732
592.1000	75.5073
592.0000	75.6326
591.9000	75.7548
591.8000	75.8778
591.7000	75.9965
591.6000	76.1055
591.5000	76.204
591.4000	76.3016
591.3000	76.3954
591.2000	76.4874
591.1000	76.5684
591.0000	76.6431
590.9000	76.7194
590.8000	76.7822
590.7000	76.8377
590.6000	76.8907
590.5000	76.9362
590.4000	76.9734
590.3000	76.9968
590.2000	77.0188
590.1000	77.0326
590.0000	77.05
589.9000	77.0563
589.8000	77.0561
589.7000	77.0422
589.6000	77.0231
589.5000	77.0001
589.4000	76.9707
589.3000	76.932
589.2000	76.8861
589.1000	76.8357
589.0000	76.7726
588.9000	76.7049
588.8000	76.6366
588.7000	76.5654
588.6000	76.4836
588.5000	76.3949
588.4000	76.2911
588.3000	76.1894
588.2000	76.085
588.1000	75.9835
588.0000	75.8704
587.9000	75.7576
587.8000	75.6401
587.7000	75.5159
587.6000	75.3923
587.5000	75.263
587.4000	75.1356
587.3000	75.0047
587.2000	74.8735
587.1000	74.7378
587.0000	74.5993
586.9000	74.4598
586.8000	74.3266
586.7000	74.189
586.6000	74.0487
586.5000	73.9084
586.4000	73.7741
586.3000	73.6324
586.2000	73.4951
586.1000	73.3571
586.0000	73.2235
585.9000	73.091
585.8000	72.9568
585.7000	72.8296
585.6000	72.7027
585.5000	72.5885
585.4000	72.4758
585.3000	72.3673
585.2000	72.2635
585.1000	72.1625
585.0000	72.0712
584.9000	71.9809
584.8000	71.894
584.7000	71.821
584.6000	71.7506
584.5000	71.6902
584.4000	71.6336
584.3000	71.5876
584.2000	71.5508
584.1000	71.5182
584.0000	71.4913
583.9000	71.4702
583.8000	71.4544
583.7000	71.45
583.6000	71.4474
583.5000	71.4611
583.4000	71.4736
583.3000	71.4957
583.2000	71.5236
583.1000	71.5553
583.0000	71.594
582.9000	71.6375
582.8000	71.6937
582.7000	71.7481
582.6000	71.8114
582.5000	71.887
582.4000	71.9634
582.3000	72.0478
582.2000	72.1372
582.1000	72.2255
582.0000	72.3233
581.9000	72.4209
581.8000	72.5289
581.7000	72.6369
581.6000	72.7552
581.5000	72.8734
581.4000	73.0017
581.3000	73.1289
581.2000	73.2555
581.1000	73.3888
581.0000	73.5243
580.9000	73.6528
580.8000	73.7878
580.7000	73.9212
580.6000	74.0582
580.5000	74.1947
580.4000	74.3371
580.3000	74.4747
580.2000	74.6117
580.1000	74.7527
580.0000	74.8829
579.9000	75.0134
579.8000	75.1374
579.7000	75.2613
579.6000	75.3849
579.5000	75.5027
579.4000	75.6189
579.3000	75.7299
579.2000	75.8372
579.1000	75.938
579.0000	76.0356
578.9000	76.1281
578.8000	76.2142
578.7000	76.2913
578.6000	76.3607
578.5000	76.4266
578.4000	76.4892
578.3000	76.5476
578.2000	76.5925
578.1000	76.6362
578.0000	76.6687
577.9000	76.698
577.8000	76.7175
577.7000	76.7325
577.6000	76.7376
577.5000	76.7371
577.4000	76.7253
577.3000	76.7095
577.2000	76.685
577.1000	76.6589
577.0000	76.6275
576.9000	76.5817
576.8000	76.5317
576.7000	76.4689
576.6000	76.4095
576.5000	76.3379
576.4000	76.2622
576.3000	76.1839
576.2000	76.0987
576.1000	76.0056
576.0000	75.9074
575.9000	75.8092
575.8000	75.7068
575.7000	75.6016
575.6000	75.4868
575.5000	75.3708
575.4000	75.2449
575.3000	75.1253
575.2000	75.001
575.1000	74.8777
575.0000	74.747
574.9000	74.6177
574.8000	74.4888
574.7000	74.3567
574.6000	74.2167
574.5000	74.0847
574.4000	73.9504
574.3000	73.8126
574.2000	73.6804
574.1000	73.5475
574.0000	73.4188
573.9000	73.2871
573.8000	73.1646
573.7000	73.0395
573.6000	72.9208
573.5000	72.8043
573.4000	72.6903
573.3000	72.5821
573.2000	72.473
573.1000	72.3667
573.0000	72.2726
572.9000	72.1777
572.8000	72.0959
572.7000	72.0161
572.6000	71.9413
572.5000	71.872
572.4000	71.8052
572.3000	71.7477
572.2000	71.696
572.1000	71.6529
572.0000	71.6125
571.9000	71.5824
571.8000	71.5644
571.7000	71.5487
571.6000	71.5439
571.5000	71.5525
571.4000	71.5654
571.3000	71.589
571.2000	71.6174
571.1000	71.656
571.0000	71.6961
570.9000	71.7455
570.8000	71.807
570.7000	71.8688
570.6000	71.9378
570.5000	72.0141
570.4000	72.0943
570.3000	72.179
570.2000	72.2674
570.1000	72.3593
570.0000	72.4598
569.9000	72.5607
569.8000	72.6676
569.7000	72.7755
569.6000	72.8919
569.5000	73.006
569.4000	73.1284
569.3000	73.2572
569.2000	73.3845
569.1000	73.5184
569.0000	73.6515
568.9000	73.7824
568.8000	73.9164
568.7000	74.0538
568.6000	74.1848
568.5000	74.322
568.4000	74.452
568.3000	74.5846
568.2000	74.7158
568.1000	74.8441
568.0000	74.9649
567.9000	75.0853
567.8000	75.2001
567.7000	75.312
567.6000	75.4202
567.5000	75.5266
567.4000	75.6303
567.3000	75.726
567.2000	75.8209
567.1000	75.9033
567.0000	75.9893
566.9000	76.0678
566.8000	76.1411
566.7000	76.2022
566.6000	76.2599
566.5000	76.312
566.4000	76.3575
566.3000	76.3981
566.2000	76.4303
566.1000	76.4536
566.0000	76.4698
565.9000	76.4793
565.8000	76.4812
565.7000	76.4794
565.6000	76.4654
565.5000	76.4466
565.4000	76.4225
565.3000	76.3842
565.2000	76.3468
565.1000	76.3024
565.0000	76.2484
564.9000	76.1884
564.8000	76.1218
564.7000	76.0492
564.6000	75.9731
564.5000	75.885
564.4000	75.7923
564.3000	75.6973
564.2000	75.5932
564.1000	75.489
564.0000	75.3837
563.9000	75.2692
563.8000	75.1511
563.7000	75.0367
563.6000	74.9082
563.5000	74.7821
563.4000	74.6548
563.3000	74.5229
563.2000	74.3884
563.1000	74.2569
563.0000	74.1227
562.9000	73.9891
562.8000	73.8599
562.7000	73.7313
562.6000	73.6
562.5000	73.4726
562.4000	73.338
562.3000	73.2182
562.2000	73.0975
562.1000	72.9743
562.0000	72.8662
561.9000	72.7532
561.8000	72.6469
561.7000	72.5453
561.6000	72.4507
561.5000	72.3558
561.4000	72.2715
561.3000	72.1936
561.2000	72.1172
561.1000	72.0488
561.0000	71.9906
560.9000	71.9311
560.8000	71.8844
560.7000	71.8361
560.6000	71.7986
560.5000	71.7656
560.4000	71.7311
560.3000	71.7149
560.2000	71.7012
560.1000	71.6951
560.0000	71.6969
559.9000	71.7067
559.8000	71.7239
559.7000	71.7446
559.6000	71.7713
559.5000	71.8092
559.4000	71.8519
559.3000	71.9045
559.2000	71.9623
559.1000	72.0314
559.0000	72.1051
558.9000	72.1864
558.8000	72.2773
558.7000	72.3679
558.6000	72.462
558.5000	72.5646
558.4000	72.6704
558.3000	72.7839
558.2000	72.8921
558.1000	73.0124
558.0000	73.1397
557.9000	73.2569
557.8000	73.3827
557.7000	73.5082
557.6000	73.6373
557.5000	73.7656
557.4000	73.8914
557.3000	74.019
557.2000	74.1443
557.1000	74.2696
557.0000	74.4016
556.9000	74.5276
556.8000	74.6486
556.7000	74.7638
556.6000	74.8857
556.5000	75.0027
556.4000	75.1108
556.3000	75.2165
556.2000	75.3177
556.1000	75.4131
556.0000	75.507
555.9000	75.5995
555.8000	75.6804
555.7000	75.7602
555.6000	75.8348
555.5000	75.9044
555.4000	75.9636
555.3000	76.0155
555.2000	76.063
555.1000	76.1045
555.0000	76.1338
554.9000	76.155
554.8000	76.1772
554.7000	76.1899
554.6000	76.1915
554.5000	76.1889
554.4000	76.175
554.3000	76.1472
554.2000	76.1192
554.1000	76.0826
554.0000	76.04
553.9000	75.9903
553.8000	75.9317
553.7000	75.8663
553.6000	75.7989
553.5000	75.7255
553.4000	75.6459
553.3000	75.559
553.2000	75.4638
553.1000	75.3643
553.0000	75.2629
552.9000	75.1542
552.8000	75.0433
552.7000	74.9333
552.6000	74.8209
552.5000	74.6993
552.4000	74.5805
552.3000	74.4538
552.2000	74.3276
552.1000	74.2076
552.0000	74.0794
551.9000	73.9511
551.8000	73.8194
551.7000	73.6926
551.6000	73.5589
551.5000	73.4337
551.4000	73.3123
551.3000	73.1935
551.2000	73.078
551.1000	72.9609
551.0000	72.8434
550.9000	72.7411
550.8000	72.6313
550.7000	72.5311
550.6000	72.4372
550.5000	72.347
550.4000	72.2669
550.3000	72.1886
550.2000	72.1275
550.1000	72.0722
550.0000	72.0259
549.9000	71.981
549.8000	71.9465
549.7000	71.9225
549.6000	71.9
549.5000	71.8848
549.4000	71.8779
549.3000	71.8736
549.2000	71.8818
549.1000	71.8976
549.0000	71.9226
548.9000	71.95
548.8000	71.9828
548.7000	72.0257
548.6000	72.0699
548.5000	72.1184
548.4000	72.1781
548.3000	72.2453
548.2000	72.3131
548.1000	72.3865
548.0000	72.4695
547.9000	72.564
547.8000	72.66
547.7000	72.7582
547.6000	72.8616
547.5000	72.9688
547.4000	73.0805
547.3000	73.1928
547.2000	73.3065
547.1000	73.4254
547.0000	73.5475
546.9000	73.6684
546.8000	73.7877
546.7000	73.9106
546.6000	74.035
546.5000	74.1543
546.4000	74.2757
546.3000	74.3901
546.2000	74.5109
546.1000	74.6285
546.0000	74.7396
545.9000	74.852
545.8000	74.9547
545.7000	75.0577
545.6000	75.1553
545.5000	75.2507
545.4000	75.3414
545.3000	75.4238
545.2000	75.5027
545.1000	75.574
545.0000	75.6387
544.9000	75.7022
544.8000	75.7559
544.7000	75.805
544.6000	75.8437
544.5000	75.8785
544.4000	75.9029
544.3000	75.9195
544.2000	75.9282
544.1000	75.933
544.0000	75.9349
543.9000	75.9224
543.8000	75.8986
543.7000	75.8767
543.6000	75.8455
543.5000	75.8078
543.4000	75.7617
543.3000	75.705
543.2000	75.6408
543.1000	75.5705
543.0000	75.4922
542.9000	75.4108
542.8000	75.3279
542.7000	75.2411
542.6000	75.1512
542.5000	75.0533
542.4000	74.9518
542.3000	74.8503
542.2000	74.7459
542.1000	74.6325
542.0000	74.5207
541.9000	74.4058
541.8000	74.2858
541.7000	74.1711
541.6000	74.062
541.5000	73.9452
541.4000	73.8321
541.3000	73.7192
541.2000	73.6072
541.1000	73.4892
541.0000	73.3746
540.9000	73.2643
540.8000	73.1531
540.7000	73.0441
540.6000	72.9373
540.5000	72.84
540.4000	72.7448
540.3000	72.6497
540.2000	72.5666
540.1000	72.4854
540.0000	72.4019
539.9000	72.332
539.8000	72.2664
539.7000	72.2116
539.6000	72.1585
539.5000	72.1139
539.4000	72.0755
539.3000	72.04
539.2000	72.0146
539.1000	71.9963
539.0000	71.9884
538.9000	71.9827
538.8000	71.9831
538.7000	71.9966
538.6000	72.0137
538.5000	72.0362
538.4000	72.0678
538.3000	72.1059
538.2000	72.15
538.1000	72.1968
538.0000	72.2556
537.9000	72.3183
537.8000	72.3874
537.7000	72.4634
537.6000	72.5436
537.5000	72.6284
537.4000	72.7162
537.3000	72.8137
537.2000	72.9132
537.1000	73.0122
537.0000	73.1167
536.9000	73.2265
536.8000	73.3365
536.7000	73.4476
536.6000	73.5626
536.5000	73.6716
536.4000	73.7838
536.3000	73.8982
536.2000	74.0112
536.1000	74.1266
536.0000	74.2449
535.9000	74.3593
535.8000	74.4658
535.7000	74.5669
535.6000	74.6723
535.5000	74.7714
535.4000	74.8677
535.3000	74.9562
535.2000	75.0438
535.1000	75.121
535.0000	75.1989
534.9000	75.2697
534.8000	75.3331
534.7000	75.3907
534.6000	75.443
534.5000	75.4871
534.4000	75.5212
534.3000	75.5484
534.2000	75.5747
534.1000	75.5952
534.0000	75.6049
533.9000	75.6122
533.8000	75.6133
533.7000	75.608
533.6000	75.5912
533.5000	75.5766
533.4000	75.546
533.3000	75.5145
533.2000	75.4759
533.1000	75.4273
533.0000	75.3711
532.9000	75.3145
532.8000	75.2492
532.7000	75.1773
532.6000	75.1033
532.5000	75.0171
532.4000	74.9282
532.3000	74.8395
532.2000	74.7421
532.1000	74.6422
532.0000	74.5439
531.9000	74.4378
531.8000	74.3346
531.7000	74.2228
531.6000	74.1177
531.5000	74.0114
531.4000	73.9013
531.3000	73.7874
531.2000	73.6732
531.1000	73.571
531.0000	73.4615
530.9000	73.3635
530.8000	73.2642
530.7000	73.1628
530.6000	73.0631
530.5000	72.9692
530.4000	72.8735
530.3000	72.7853
530.2000	72.7028
530.1000	72.631
530.0000	72.5523
529.9000	72.4868
529.8000	72.4313
529.7000	72.3826
529.6000	72.339
529.5000	72.2942
529.4000	72.2573
529.3000	72.2257
529.2000	72.2012
529.1000	72.1881
529.0000	72.1824
528.9000	72.1794
528.8000	72.1856
528.7000	72.2038
528.6000	72.2205
528.5000	72.2457
528.4000	72.2807
528.3000	72.3178
528.2000	72.3611
528.1000	72.4083
528.0000	72.4691
527.9000	72.5291
527.8000	72.6018
527.7000	72.6761
527.6000	72.7555
527.5000	72.8365
527.4000	72.9243
527.3000	73.0188
527.2000	73.1204
527.1000	73.2178
527.0000	73.3174
526.9000	73.4245
526.8000	73.5293
526.7000	73.6359
526.6000	73.7419
526.5000	73.8492
526.4000	73.9547
526.3000	74.0657
526.2000	74.1708
526.1000	74.2745
526.0000	74.3777
525.9000	74.4775
525.8000	74.5739
525.7000	74.6658
525.6000	74.7501
525.5000	74.8319
525.4000	74.9142
525.3000	74.9834
525.2000	75.0515
525.1000	75.1183
525.0000	75.1803
524.9000	75.2314
524.8000	75.2775
524.7000	75.3121
524.6000	75.3448
524.5000	75.371
524.4000	75.3894
524.3000	75.3986
524.2000	75.404
524.1000	75.4038
524.0000	75.399
523.9000	75.3859
523.8000	75.3657
523.7000	75.3371
523.6000	75.3006
523.5000	75.2564
523.4000	75.2026
523.3000	75.1462
523.2000	75.0814
523.1000	75.021
523.0000	74.9525
522.9000	74.8772
522.8000	74.7939
522.7000	74.7077
522.6000	74.6131
522.5000	74.5186
522.4000	74.4205
522.3000	74.3185
522.2000	74.2149
522.1000	74.1133
522.0000	74.0142
521.9000	73.9128
521.8000	73.8174
521.7000	73.7216
521.6000	73.623
521.5000	73.5191
521.4000	73.4145
521.3000	73.312
521.2000	73.2193
521.1000	73.1295
521.0000	73.0361
520.9000	72.945
520.8000	72.86
520.7000	72.78
520.6000	72.704
520.5000	72.6327
520.4000	72.5625
520.3000	72.4991
520.2000	72.4379
520.1000	72.3855
520.0000	72.4875
519.9000	72.4487
519.8000	72.422
519.7000	72.4044
519.6000	72.3878
519.5000	72.377
519.4000	72.3701
519.3000	72.3766
519.2000	72.3891
519.1000	72.4088
519.0000	72.4304
518.9000	72.4635
518.8000	72.4969
518.7000	72.5378
518.6000	72.5897
518.5000	72.6452
518.4000	72.7116
518.3000	72.7818
518.2000	72.8537
518.1000	72.9293
518.0000	73.0108
517.9000	73.104
517.8000	73.1953
517.7000	73.2893
517.6000	73.3821
517.5000	73.4744
517.4000	73.5683
517.3000	73.6646
517.2000	73.762
517.1000	73.8619
517.0000	73.9623
516.9000	74.0586
516.8000	74.1493
516.7000	74.2421
516.6000	74.3321
516.5000	74.4174
516.4000	74.5035
516.3000	74.5825
516.2000	74.6605
516.1000	74.7407
516.0000	74.811
515.9000	74.875
515.8000	74.942
515.7000	74.9978
515.6000	75.0509
515.5000	75.0979
515.4000	75.1315
515.3000	75.1666
515.2000	75.1925
515.1000	75.2076
515.0000	75.2223
514.9000	75.2205
514.8000	75.2184
514.7000	75.212
514.6000	75.1965
514.5000	75.1692
514.4000	75.143
514.3000	75.1135
514.2000	75.0726
514.1000	75.0253
514.0000	74.9793
513.9000	74.9201
513.8000	74.8575
513.7000	74.7909
513.6000	74.7255
513.5000	74.6546
513.4000	74.5771
513.3000	74.5033
513.2000	74.4215
513.1000	74.3326
513.0000	74.248
512.9000	74.1575
512.8000	74.0689
512.7000	73.9772
512.6000	73.8862
512.5000	73.7951
512.4000	73.6964
512.3000	73.6044
512.2000	73.5164
512.1000	73.4302
512.0000	73.3399
511.9000	73.2537
511.8000	73.1699
511.7000	73.0907
511.6000	73.016
511.5000	72.9473
511.4000	72.8741
511.3000	72.813
511.2000	72.7549
511.1000	72.7035
511.0000	72.6532
510.9000	72.6148
510.8000	72.5826
510.7000	72.5547
510.6000	72.5325
510.5000	72.5137
510.4000	72.5059
510.3000	72.5082
510.2000	72.5123
510.1000	72.5202
510.0000	72.5381
509.9000	72.5613
509.8000	72.5962
509.7000	72.6336
509.6000	72.6725
509.5000	72.7204
509.4000	72.7776
509.3000	72.8313
509.2000	72.8966
509.1000	72.9646
509.0000	73.0373
508.9000	73.1096
508.8000	73.1831
508.7000	73.258
508.6000	73.3374
508.5000	73.4231
508.4000	73.5035
508.3000	73.5907
508.2000	73.6776
508.1000	73.7648
508.0000	73.8534
507.9000	73.9361
507.8000	74.0169
507.7000	74.101
507.6000	74.1784
507.5000	74.2557
507.4000	74.3284
507.3000	74.4051
507.2000	74.4809
507.1000	74.5437
507.0000	74.6047
506.9000	74.6608
506.8000	74.7152
506.7000	74.7584
506.6000	74.7991
506.5000	74.8255
506.4000	74.8538
506.3000	74.8785
506.2000	74.8949
506.1000	74.9049
506.0000	74.909
505.9000	74.9053
505.8000	74.8979
505.7000	74.8802
505.6000	74.8498
505.5000	74.8253
505.4000	74.7941
505.3000	74.7559
505.2000	74.7101
505.1000	74.6538
505.0000	74.5948
504.9000	74.5322
504.8000	74.4676
504.7000	74.3964
504.6000	74.3234
504.5000	74.245
504.4000	74.1632
504.3000	74.0839
504.2000	74.0046
504.1000	73.9204
504.0000	73.8381
503.9000	73.7529
503.8000	73.6627
503.7000	73.5784
503.6000	73.4954
503.5000	73.4163
503.4000	73.3341
503.3000	73.2654
503.2000	73.1863
503.1000	73.1138
503.0000	73.0424
502.9000	72.9807
502.8000	72.9237
502.7000	72.8674
502.6000	72.8139
502.5000	72.767
502.4000	72.7283
502.3000	72.6954
502.2000	72.6702
502.1000	72.6415
502.0000	72.6239
501.9000	72.6114
501.8000	72.6041
501.7000	72.6007
501.6000	72.6082
501.5000	72.6165
501.4000	72.6321
501.3000	72.6536
501.2000	72.6787
501.1000	72.7089
501.0000	72.736
500.9000	72.7771
500.8000	72.8201
500.7000	72.863
500.6000	72.9107
500.5000	72.9694
500.4000	73.0243
500.3000	73.0861
500.2000	73.1554
500.1000	73.2205
500.0000	73.2887
499.9000	73.3624
499.8000	73.4417
499.7000	73.5158
499.6000	73.5866
499.5000	73.6594
499.4000	73.7385
499.3000	73.8128
499.2000	73.8833
499.1000	73.9567
499.0000	74.0288
498.9000	74.0948
498.8000	74.1602
498.7000	74.2239
498.6000	74.2799
498.5000	74.3333
498.4000	74.3849
498.3000	74.4315
498.2000	74.467
498.1000	74.4961
498.0000	74.5291
497.9000	74.55
497.8000	74.5701
497.7000	74.578
497.6000	74.5844
497.5000	74.581
497.4000	74.5718
497.3000	74.5606
497.2000	74.54
497.1000	74.5145
497.0000	74.4836
496.9000	74.4514
496.8000	74.4078
496.7000	74.3611
496.6000	74.3136
496.5000	74.2636
496.4000	74.2058
496.3000	74.1524
496.2000	74.0871
496.1000	74.0218
496.0000	73.9511
495.9000	73.8799
495.8000	73.8113
495.7000	73.734
495.6000	73.6589
495.5000	73.5843
495.4000	73.5154
495.3000	73.4462
495.2000	73.3774
495.1000	73.3089
495.0000	73.2373
494.9000	73.1687
494.8000	73.1013
494.7000	73.0401
494.6000	72.984
494.5000	72.9246
494.4000	72.8762
494.3000	72.8296
494.2000	72.7836
494.1000	72.748
494.0000	72.7147
493.9000	72.6873
493.8000	72.6576
493.7000	72.6321
493.6000	72.6141
493.5000	72.6017
493.4000	72.5994
493.3000	72.597
493.2000	72.606
493.1000	72.615
493.0000	72.6278
492.9000	72.6541
492.8000	72.6819
492.7000	72.7201
492.6000	72.7613
492.5000	72.801
492.4000	72.8504
492.3000	72.8955
492.2000	72.9483
492.1000	73.0028
492.0000	73.066
491.9000	73.1314
491.8000	73.1931
491.7000	73.2634
491.6000	73.3277
491.5000	73.3917
491.4000	73.4665
491.3000	73.5385
491.2000	73.6057
491.1000	73.6674
491.0000	73.7336
490.9000	73.796
490.8000	73.8551
490.7000	73.9166
490.6000	73.9721
490.5000	74.0269
490.4000	74.0716
490.3000	74.1151
490.2000	74.1524
490.1000	74.1874
490.0000	74.2189
489.9000	74.247
489.8000	74.2553
489.7000	74.2576
489.6000	74.2655
489.5000	74.2692
489.4000	74.2607
489.3000	74.2501
489.2000	74.2395
489.1000	74.2225
489.0000	74.2016
488.9000	74.1707
488.8000	74.1381
488.7000	74.0988
488.6000	74.0623
488.5000	74.0227
488.4000	73.9736
488.3000	73.9202
488.2000	73.8727
488.1000	73.8238
488.0000	73.7601
487.9000	73.6969
487.8000	73.6406
487.7000	73.5817
487.6000	73.521
487.5000	73.4566
487.4000	73.395
487.3000	73.3314
487.2000	73.269
487.1000	73.2106
487.0000	73.1527
486.9000	73.0936
486.8000	73.0426
486.7000	72.9958
486.6000	72.9482
486.5000	72.9082
486.4000	72.8739
486.3000	72.842
486.2000	72.8037
486.1000	72.7757
486.0000	72.7483
485.9000	72.7299
485.8000	72.7088
485.7000	72.7014
485.6000	72.6988
485.5000	72.6958
485.4000	72.7012
485.3000	72.7046
485.2000	72.718
485.1000	72.737
485.0000	72.7571
484.9000	72.7816
484.8000	72.812
484.7000	72.8463
484.6000	72.8867
484.5000	72.9262
484.4000	72.9716
484.3000	73.0174
484.2000	73.0743
484.1000	73.127
484.0000	73.1768
483.9000	73.2301
483.8000	73.2827
483.7000	73.3411
483.6000	73.3919
483.5000	73.4418
483.4000	73.4992
483.3000	73.5505
483.2000	73.5956
483.1000	73.6433
483.0000	73.6904
482.9000	73.7384
482.8000	73.778
482.7000	73.8172
482.6000	73.8501
482.5000	73.8862
482.4000	73.9184
482.3000	73.9462
482.2000	73.9662
482.1000	73.986
482.0000	74.0025
481.9000	74.0167
481.8000	74.0181
481.7000	74.0216
481.6000	74.0244
481.5000	74.0147
481.4000	73.9983
481.3000	73.9795
481.2000	73.9591
481.1000	73.9305
481.0000	73.9004
480.9000	73.862
480.8000	73.8217
480.7000	73.7772
480.6000	73.7353
480.5000	73.6904
480.4000	73.6396
480.3000	73.5853
480.2000	73.5329
480.1000	73.4793
480.0000	73.4217
479.9000	73.3728
479.8000	73.3257
479.7000	73.2749
479.6000	73.2213
479.5000	73.1734
479.4000	73.1233
479.3000	73.0777
479.2000	73.0343
479.1000	72.9964
479.0000	72.9573
478.9000	72.9187
478.8000	72.89
478.7000	72.8601
478.6000	72.8374
478.5000	72.8153
478.4000	72.7949
478.3000	72.7821
478.2000	72.7689
478.1000	72.7646
478.0000	72.7615
477.9000	72.7637
477.8000	72.7714
477.7000	72.7782
477.6000	72.7889
477.5000	72.802
477.4000	72.8202
477.3000	72.8427
477.2000	72.8597
477.1000	72.8852
477.0000	72.9171
476.9000	72.9467
476.8000	72.9876
476.7000	73.0228
476.6000	73.0653
476.5000	73.1018
476.4000	73.1465
476.3000	73.1866
476.2000	73.2305
476.1000	73.2738
476.0000	73.3232
475.9000	73.3653
475.8000	73.41
475.7000	73.4464
475.6000	73.4919
475.5000	73.5324
475.4000	73.5629
475.3000	73.6018
475.2000	73.6331
475.1000	73.6589
475.0000	73.6785
474.9000	73.7003
474.8000	73.7142
474.7000	73.7255
474.6000	73.7321
474.5000	73.7313
474.4000	73.7228
474.3000	73.7212
474.2000	73.7104
474.1000	73.7044
474.0000	73.6908
473.9000	73.6729
473.8000	73.6538
473.7000	73.6254
473.6000	73.5974
473.5000	73.5698
473.4000	73.5423
473.3000	73.5101
473.2000	73.4785
473.1000	73.4441
473.0000	73.4078
472.9000	73.3772
472.8000	73.3427
472.7000	73.3014
472.6000	73.2665
472.5000	73.2266
472.4000	73.1862
472.3000	73.1516
472.2000	73.1159
472.1000	73.0801
472.0000	73.0457
471.9000	73.0167
471.8000	72.9832
471.7000	72.9495
471.6000	72.9243
471.5000	72.9051
471.4000	72.8802
471.3000	72.8626
471.2000	72.8495
471.1000	72.8402
471.0000	72.8307
470.9000	72.8256
470.8000	72.8236
470.7000	72.8201
470.6000	72.8259
470.5000	72.8284
470.4000	72.8375
470.3000	72.8473
470.2000	72.8594
470.1000	72.8836
470.0000	72.8998
469.9000	72.9197
469.8000	72.9494
469.7000	72.9767
469.6000	73.0074
469.5000	73.0337
469.4000	73.0619
469.3000	73.0933
469.2000	73.1266
469.1000	73.1628
469.0000	73.1929
468.9000	73.229
468.8000	73.2619
468.7000	73.2893
468.6000	73.3229
468.5000	73.3477
468.4000	73.3755
468.3000	73.4
468.2000	73.4223
468.1000	73.4395
468.0000	73.4533
467.9000	73.4751
467.8000	73.4903
467.7000	73.4987
467.6000	73.5068
467.5000	73.5119
467.4000	73.5111
467.3000	73.5076
467.2000	73.5
467.1000	73.4887
467.0000	73.4747
466.9000	73.4585
466.8000	73.4432
466.7000	73.4253
466.6000	73.4037
466.5000	73.3781
466.4000	73.3523
466.3000	73.3177
466.2000	73.2824
466.1000	73.2568
466.0000	73.2231
465.9000	73.1867
465.8000	73.1548
465.7000	73.1227
465.6000	73.0897
465.5000	73.0608
465.4000	73.0326
465.3000	73.0033
465.2000	72.9695
465.1000	72.9355
465.0000	72.9087
464.9000	72.8818
464.8000	72.8585
464.7000	72.8411
464.6000	72.8222
464.5000	72.8038
464.4000	72.7821
464.3000	72.7663
464.2000	72.7507
464.1000	72.7422
464.0000	72.7375
463.9000	72.7312
463.8000	72.7272
463.7000	72.7302
463.6000	72.7405
463.5000	72.752
463.4000	72.7552
463.3000	72.7714
463.2000	72.7805
463.1000	72.7948
463.0000	72.8124
462.9000	72.8281
462.8000	72.8539
462.7000	72.8748
462.6000	72.897
462.5000	72.9145
462.4000	72.9307
462.3000	72.9492
462.2000	72.969
462.1000	72.987
462.0000	72.9955
461.9000	73.0058
461.8000	73.0219
461.7000	73.0354
461.6000	73.0454
461.5000	73.0589
461.4000	73.0681
461.3000	73.0721
461.2000	73.0741
461.1000	73.0762
461.0000	73.0813
460.9000	73.0795
460.8000	73.0798
460.7000	73.0795
460.6000	73.07
460.5000	73.0625
460.4000	73.057
460.3000	73.0488
460.2000	73.0384
460.1000	73.0182
460.0000	73.0048
459.9000	72.9801
459.8000	72.9581
459.7000	72.9387
459.6000	72.9185
459.5000	72.8998
459.4000	72.8718
459.3000	72.8481
459.2000	72.8256
459.1000	72.8017
459.0000	72.7787
458.9000	72.7539
458.8000	72.7299
458.7000	72.706
458.6000	72.6816
458.5000	72.6681
458.4000	72.6487
458.3000	72.6306
458.2000	72.6168
458.1000	72.6007
458.0000	72.5857
457.9000	72.5755
457.8000	72.5696
457.7000	72.5651
457.6000	72.5538
457.5000	72.5465
457.4000	72.5443
457.3000	72.5404
457.2000	72.5364
457.1000	72.5397
457.0000	72.5435
456.9000	72.5443
456.8000	72.5456
456.7000	72.5538
456.6000	72.5579
456.5000	72.5651
456.4000	72.5729
456.3000	72.5773
456.2000	72.5829
456.1000	72.5906
456.0000	72.6014
455.9000	72.6108
455.8000	72.6192
455.7000	72.627
455.6000	72.6332
455.5000	72.636
455.4000	72.6413
455.3000	72.6367
455.2000	72.6467
455.1000	72.6484
455.0000	72.6483
454.9000	72.6461
454.8000	72.641
454.7000	72.6356
454.6000	72.6335
454.5000	72.6264
454.4000	72.6214
454.3000	72.6084
454.2000	72.598
454.1000	72.5893
454.0000	72.5816
453.9000	72.5672
453.8000	72.5499
453.7000	72.5454
453.6000	72.5282
453.5000	72.5069
453.4000	72.4884
453.3000	72.4662
453.2000	72.4522
453.1000	72.4338
453.0000	72.4175
452.9000	72.398
452.8000	72.3784
452.7000	72.3658
452.6000	72.3466
452.5000	72.3272
452.4000	72.3146
452.3000	72.3063
452.2000	72.2976
452.1000	72.2808
452.0000	72.2742
451.9000	72.2663
451.8000	72.2653
451.7000	72.2671
451.6000	72.2652
451.5000	72.2654
451.4000	72.2641
451.3000	72.269
451.2000	72.2736
451.1000	72.2787
451.0000	72.2881
450.9000	72.2992
450.8000	72.3087
450.7000	72.3154
450.6000	72.3262
450.5000	72.338
450.4000	72.3452
450.3000	72.3582
450.2000	72.3656
450.1000	72.3718
450.0000	72.3806
449.9000	72.3889
449.8000	72.3942
449.7000	72.401
449.6000	72.4044
449.5000	72.4086
449.4000	72.4111
449.3000	72.415
449.2000	72.4147
449.1000	72.413
449.0000	72.4072
448.9000	72.404
448.8000	72.3991
448.7000	72.3919
448.6000	72.38
448.5000	72.3766
448.4000	72.3695
448.3000	72.3534
448.2000	72.3427
448.1000	72.3272
448.0000	72.3149
447.9000	72.2946
447.8000	72.2782
447.7000	72.2557
447.6000	72.2399
447.5000	72.2229
447.4000	72.2016
447.3000	72.1816
447.2000	72.1657
447.1000	72.1515
447.0000	72.1412
446.9000	72.1238
446.8000	72.1074
446.7000	72.1006
446.6000	72.0853
446.5000	72.0796
446.4000	72.0703
446.3000	72.0684
446.2000	72.0636
446.1000	72.0631
446.0000	72.0582
445.9000	72.0592
445.8000	72.0712
445.7000	72.0802
445.6000	72.085
445.5000	72.0963
445.4000	72.1099
445.3000	72.1232
445.2000	72.1327
445.1000	72.1518
445.0000	72.1693
444.9000	72.1866
444.8000	72.206
444.7000	72.2216
444.6000	72.2423
444.5000	72.2594
444.4000	72.2795
444.3000	72.2988
444.2000	72.316
444.1000	72.3351
444.0000	72.3569
443.9000	72.3716
443.8000	72.3867
443.7000	72.399
443.6000	72.413
443.5000	72.4215
443.4000	72.4254
443.3000	72.4285
443.2000	72.4322
443.1000	72.4358
443.0000	72.4348
442.9000	72.4307
442.8000	72.4241
442.7000	72.4166
442.6000	72.4036
442.5000	72.3893
442.4000	72.3674
442.3000	72.353
442.2000	72.3301
442.1000	72.3047
442.0000	72.2794
441.9000	72.2496
441.8000	72.2295
441.7000	72.2041
441.6000	72.1748
441.5000	72.1471
441.4000	72.1129
441.3000	72.0904
441.2000	72.0672
441.1000	72.0418
441.0000	72.0174
440.9000	71.9959
440.8000	71.9768
440.7000	71.9514
440.6000	71.9351
440.5000	71.9285
440.4000	71.9257
440.3000	71.9204
440.2000	71.9169
440.1000	71.919
440.0000	71.9249
439.9000	71.9335
439.8000	71.9511
439.7000	71.9672
439.6000	71.9842
439.5000	72.006
439.4000	72.0284
439.3000	72.0541
439.2000	72.0867
439.1000	72.1177
439.0000	72.1478
438.9000	72.1781
438.8000	72.2125
438.7000	72.2504
438.6000	72.2861
438.5000	72.3184
438.4000	72.3539
438.3000	72.3786
438.2000	72.4141
438.1000	72.4368
438.0000	72.4621
437.9000	72.4844
437.8000	72.5059
437.7000	72.518
437.6000	72.523
437.5000	72.5322
437.4000	72.5398
437.3000	72.544
437.2000	72.5403
437.1000	72.5293
437.0000	72.5181
436.9000	72.5004
436.8000	72.4755
436.7000	72.4621
436.6000	72.4373
436.5000	72.4143
436.4000	72.3841
436.3000	72.3408
436.2000	72.3057
436.1000	72.2702
436.0000	72.2367
435.9000	72.2018
435.8000	72.163
435.7000	72.1202
435.6000	72.0818
435.5000	72.0513
435.4000	72.0193
435.3000	71.9972
435.2000	71.9734
435.1000	71.9502
435.0000	71.9276
434.9000	71.9117
434.8000	71.8951
434.7000	71.8923
434.6000	71.8841
434.5000	71.8861
434.4000	71.8883
434.3000	71.8981
434.2000	71.9136
434.1000	71.9317
434.0000	71.9464
433.9000	71.9677
433.8000	71.9969
433.7000	72.0201
433.6000	72.0602
433.5000	72.0965
433.4000	72.1341
433.3000	72.1762
433.2000	72.2223
433.1000	72.2689
433.0000	72.3169
432.9000	72.3628
432.8000	72.4076
432.7000	72.4451
432.6000	72.4804
432.5000	72.5173
432.4000	72.5521
432.3000	72.576
432.2000	72.5982
432.1000	72.6212
432.0000	72.6329
431.9000	72.639
431.8000	72.6397
431.7000	72.6333
431.6000	72.6241
431.5000	72.6155
431.4000	72.5997
431.3000	72.5763
431.2000	72.5498
431.1000	72.5219
431.0000	72.4874
430.9000	72.4485
430.8000	72.4107
430.7000	72.3725
430.6000	72.326
430.5000	72.28
430.4000	72.2289
430.3000	72.1814
430.2000	72.1347
430.1000	72.0907
430.0000	72.048
429.9000	72.0023
429.8000	71.9552
429.7000	71.918
429.6000	71.8811
429.5000	71.8459
429.4000	71.8216
429.3000	71.7997
429.2000	71.7856
429.1000	71.7745
429.0000	71.7645
428.9000	71.759
428.8000	71.7605
428.7000	71.7682
428.6000	71.7837
428.5000	71.7968
428.4000	71.8109
428.3000	71.8334
428.2000	71.865
428.1000	71.895
428.0000	71.9297
427.9000	71.9652
427.8000	71.9957
427.7000	72.0292
427.6000	72.0565
427.5000	72.094
427.4000	72.131
427.3000	72.161
427.2000	72.1918
427.1000	72.2176
427.0000	72.24
426.9000	72.2601
426.8000	72.2787
426.7000	72.288
426.6000	72.2908
426.5000	72.2882
426.4000	72.2821
426.3000	72.2664
426.2000	72.2464
426.1000	72.2262
426.0000	72.1949
425.9000	72.1522
425.8000	72.1065
425.7000	72.0565
425.6000	72.0002
425.5000	71.9441
425.4000	71.8809
425.3000	71.8182
425.2000	71.7522
425.1000	71.6823
425.0000	71.6189
424.9000	71.5492
424.8000	71.4768
424.7000	71.4134
424.6000	71.3539
424.5000	71.2922
424.4000	71.2376
424.3000	71.1885
424.2000	71.1464
424.1000	71.1039
424.0000	71.0704
423.9000	71.0405
423.8000	71.0145
423.7000	71.001
423.6000	70.9902
423.5000	70.9862
423.4000	70.9834
423.3000	70.9902
423.2000	71.0048
423.1000	71.0227
423.0000	71.0432
422.9000	71.0681
422.8000	71.0951
422.7000	71.1246
422.6000	71.1572
422.5000	71.1956
422.4000	71.2346
422.3000	71.271
422.2000	71.3056
422.1000	71.3368
422.0000	71.3671
421.9000	71.3967
421.8000	71.4203
421.7000	71.4404
421.6000	71.4542
421.5000	71.4636
421.4000	71.4712
421.3000	71.4724
421.2000	71.4674
421.1000	71.4572
421.0000	71.4404
420.9000	71.4205
420.8000	71.3823
420.7000	71.3419
420.6000	71.303
420.5000	71.249
420.4000	71.2006
420.3000	71.1463
420.2000	71.0886
420.1000	71.0373
420.0000	71.7017
419.9000	71.6492
419.8000	71.5882
419.7000	71.5335
419.6000	71.4829
419.5000	71.428
419.4000	71.3788
419.3000	71.3346
419.2000	71.2866
419.1000	71.2467
419.0000	71.2147
418.9000	71.1876
418.8000	71.1719
418.7000	71.1629
418.6000	71.1559
418.5000	71.1534
418.4000	71.168
418.3000	71.1886
418.2000	71.2126
418.1000	71.2389
418.0000	71.2786
417.9000	71.3247
417.8000	71.3758
417.7000	71.4234
417.6000	71.4895
417.5000	71.5478
417.4000	71.608
417.3000	71.6709
417.2000	71.7199
417.1000	71.7729
417.0000	71.8329
416.9000	71.8827
416.8000	71.9234
416.7000	71.9544
416.6000	71.9791
416.5000	72.0019
416.4000	72.0067
416.3000	72.0029
416.2000	71.9986
416.1000	71.9796
416.0000	71.9497
415.9000	71.9172
415.8000	71.8749
415.7000	71.8251
415.6000	71.7758
415.5000	71.7172
415.4000	71.6446
415.3000	71.5765
415.2000	71.5077
415.1000	71.437
415.0000	71.3694
414.9000	71.2956
414.8000	71.2232
414.7000	71.1573
414.6000	71.09
414.5000	71.0295
414.4000	70.9738
414.3000	70.9258
414.2000	70.8848
414.1000	70.8438
414.0000	70.8054
413.9000	70.7812
413.8000	70.7608
413.7000	70.7469
413.6000	70.7424
413.5000	70.7488
413.4000	70.7553
413.3000	70.7807
413.2000	70.8045
413.1000	70.8324
413.0000	70.8632
412.9000	70.9031
412.8000	70.9406
412.7000	70.9824
412.6000	71.0138
412.5000	71.056
412.4000	71.0964
412.3000	71.1296
412.2000	71.1613
412.1000	71.1912
412.0000	71.2172
411.9000	71.2309
411.8000	71.2415
411.7000	71.2446
411.6000	71.2455
411.5000	71.236
411.4000	71.2243
411.3000	71.1979
411.2000	71.1665
411.1000	71.1263
411.0000	71.0875
410.9000	71.0348
410.8000	70.9821
410.7000	70.9259
410.6000	70.8618
410.5000	70.7928
410.4000	70.7253
410.3000	70.6604
410.2000	70.5953
410.1000	70.5249
410.0000	70.4607
409.9000	70.4049
409.8000	70.3501
409.7000	70.3028
409.6000	70.2635
409.5000	70.2326
409.4000	70.2109
409.3000	70.1913
409.2000	70.1804
409.1000	70.1744
409.0000	70.1851
408.9000	70.1983
408.8000	70.221
408.7000	70.2416
408.6000	70.2769
408.5000	70.3197
408.4000	70.3688
408.3000	70.4168
408.2000	70.4674
408.1000	70.521
408.0000	70.5751
407.9000	70.6224
407.8000	70.673
407.7000	70.7311
407.6000	70.7803
407.5000	70.827
407.4000	70.863
407.3000	70.902
407.2000	70.9262
407.1000	70.9531
407.0000	70.9691
406.9000	70.9714
406.8000	70.9674
406.7000	70.958
406.6000	70.9383
406.5000	70.9128
406.4000	70.8781
406.3000	70.8422
406.2000	70.7976
406.1000	70.747
406.0000	70.6979
405.9000	70.6488
405.8000	70.607
405.7000	70.5618
405.6000	70.5173
405.5000	70.4773
405.4000	70.4438
405.3000	70.4184
405.2000	70.3966
405.1000	70.3781
405.0000	70.376
404.9000	70.3844
404.8000	70.3982
404.7000	70.4243
404.6000	70.4544
404.5000	70.4948
404.4000	70.5435
404.3000	70.5974
404.2000	70.655
404.1000	70.717
404.0000	70.7857
403.9000	70.8601
403.8000	70.9305
403.7000	71.0024
403.6000	71.0795
403.5000	71.1606
403.4000	71.2308
403.3000	71.2921
403.2000	71.3482
403.1000	71.3955
403.0000	71.4398
402.9000	71.4747
402.8000	71.4989
402.7000	71.5165
402.6000	71.5196
402.5000	71.5135
402.4000	71.4993
402.3000	71.469
402.2000	71.4374
402.1000	71.401
402.0000	71.3507
401.9000	71.2901
401.8000	71.2295
401.7000	71.1683
401.6000	71.1119
401.5000	71.0433
401.4000	70.9841
401.3000	70.9212
401.2000	70.8603
401.1000	70.8015
401.0000	70.7536
400.9000	70.7107
400.8000	70.6685
400.7000	70.6452
400.6000	70.6206
400.5000	70.5987
400.4000	70.5867
400.3000	70.5826
400.2000	70.5848
400.1000	70.5942
400.0000	70.6015
399.9000	70.6248
399.8000	70.6365
399.7000	70.6582
399.6000	70.6797
399.5000	70.6981
399.4000	70.7157
399.3000	70.7272
399.2000	70.7452
399.1000	70.7499
399.0000	70.7479
398.9000	70.7446
398.8000	70.7357
398.7000	70.7146
398.6000	70.6851
398.5000	70.6474
398.4000	70.6072
398.3000	70.5538
398.2000	70.5014
398.1000	70.4336
398.0000	70.3655
397.9000	70.2939
397.8000	70.2183
397.7000	70.1485
397.6000	70.0684
397.5000	69.9915
397.4000	69.9224
397.3000	69.8483
397.2000	69.7781
397.1000	69.7205
397.0000	69.6661
396.9000	69.6169
396.8000	69.5708
396.7000	69.5323
396.6000	69.5033
396.5000	69.4876
396.4000	69.4776
396.3000	69.4729
396.2000	69.4714
396.1000	69.4741
396.0000	69.4858
395.9000	69.4941
395.8000	69.5006
395.7000	69.5181
395.6000	69.5349
395.5000	69.5463
395.4000	69.557
395.3000	69.5643
395.2000	69.5665
395.1000	69.5719
395.0000	69.569
394.9000	69.554
394.8000	69.5368
394.7000	69.5181
394.6000	69.4932
394.5000	69.4595
394.4000	69.4224
394.3000	69.3786
394.2000	69.3378
394.1000	69.2884
394.0000	69.2367
393.9000	69.1827
393.8000	69.127
393.7000	69.079
393.6000	69.0343
393.5000	68.9833
393.4000	68.9363
393.3000	68.8992
393.2000	68.8563
393.1000	68.8207
393.0000	68.7926
392.9000	68.7656
392.8000	68.7458
392.7000	68.7377
392.6000	68.7266
392.5000	68.7161
392.4000	68.7128
392.3000	68.7203
392.2000	68.7322
392.1000	68.7381
392.0000	68.7433
391.9000	68.7534
391.8000	68.7622
391.7000	68.7629
391.6000	68.7694
391.5000	68.7667
391.4000	68.7663
391.3000	68.7659
391.2000	68.7563
391.1000	68.7391
391.0000	68.7168
390.9000	68.6978
390.8000	68.6758
390.7000	68.6429
390.6000	68.6047
390.5000	68.5647
390.4000	68.5337
390.3000	68.4938
390.2000	68.4489
390.1000	68.4077
390.0000	68.3667
389.9000	68.3291
389.8000	68.2866
389.7000	68.2443
389.6000	68.2093
389.5000	68.1751
389.4000	68.1499
389.3000	68.1288
389.2000	68.1076
389.1000	68.0893
389.0000	68.075
388.9000	68.0644
388.8000	68.0458
388.7000	68.0377
388.6000	68.0338
388.5000	68.0319
388.4000	68.0243
388.3000	68.0268
388.2000	68.0199
388.1000	68.0123
388.0000	68.0026
387.9000	67.9954
387.8000	67.9851
387.7000	67.9665
387.6000	67.9449
387.5000	67.915
387.4000	67.8885
387.3000	67.8574
387.2000	67.8242
387.1000	67.7836
387.0000	67.7427
386.9000	67.7012
386.8000	67.6624
386.7000	67.6139
386.6000	67.5749
386.5000	67.5379
386.4000	67.4965
386.3000	67.4594
386.2000	67.4167
386.1000	67.3806
386.0000	67.3418
385.9000	67.3109
385.8000	67.2772
385.7000	67.2467
385.6000	67.2214
385.5000	67.1977
385.4000	67.1707
385.3000	67.1463
385.2000	67.1252
385.1000	67.097
385.0000	67.0729
384.9000	67.0429
384.8000	67.0189
384.7000	66.988
384.6000	66.9624
384.5000	66.9328
384.4000	66.8991
384.3000	66.8652
384.2000	66.8268
384.1000	66.7933
384.0000	66.7509
383.9000	66.7138
383.8000	66.6722
383.7000	66.6258
383.6000	66.5806
383.5000	66.5378
383.4000	66.4877
383.3000	66.4418
383.2000	66.3974
383.1000	66.3521
383.0000	66.3054
382.9000	66.2579
382.8000	66.2154
382.7000	66.1725
382.6000	66.1304
382.5000	66.0837
382.4000	66.0415
382.3000	65.9923
382.2000	65.9496
382.1000	65.9068
382.0000	65.8588
381.9000	65.8127
381.8000	65.7695
381.7000	65.7235
381.6000	65.6753
381.5000	65.6199
381.4000	65.5647
381.3000	65.5156
381.2000	65.4582
381.1000	65.3982
381.0000	65.3427
380.9000	65.2778
380.8000	65.2166
380.7000	65.1567
380.6000	65.0936
380.5000	65.0315
380.4000	64.9632
380.3000	64.8942
380.2000	64.83
380.1000	64.7648
380.0000	64.6928
379.9000	64.6238
379.8000	64.5541
379.7000	64.4758
379.6000	64.3989
379.5000	64.33
379.4000	64.2501
379.3000	64.1793
379.2000	64.1033
379.1000	64.0287
379.0000	63.9517
378.9000	63.8681
378.8000	63.7877
378.7000	63.7111
378.6000	63.6187
378.5000	63.5304
378.4000	63.4443
378.3000	63.3606
378.2000	63.2707
378.1000	63.1791
378.0000	63.0924
377.9000	62.9984
377.8000	62.9083
377.7000	62.8106
377.6000	62.7118
377.5000	62.6088
377.4000	62.5096
377.3000	62.4062
377.2000	62.3047
377.1000	62.1945
377.0000	62.0871
376.9000	61.9754
376.8000	61.8564
376.7000	61.7401
376.6000	61.6274
376.5000	61.5038
376.4000	61.3755
376.3000	61.2464
376.2000	61.1133
376.1000	60.972
376.0000	60.8312
375.9000	60.6787
375.8000	60.5194
375.7000	60.3632
375.6000	60.1987
375.5000	60.0338
375.4000	59.8648
375.3000	59.6921
375.2000	59.5163
375.1000	59.3285
375.0000	59.1411
374.9000	58.9508
374.8000	58.758
374.7000	58.5542
374.6000	58.347
374.5000	58.1373
374.4000	57.9142
374.3000	57.6937
374.2000	57.4659
374.1000	57.2231
374.0000	56.9777
373.9000	56.7168
373.8000	56.4457
373.7000	56.1758
373.6000	55.89
373.5000	55.6026
373.4000	55.2994
373.3000	54.9894
373.2000	54.6725
373.1000	54.344
373.0000	54.0043
372.9000	53.6524
372.8000	53.2965
372.7000	52.9337
372.6000	52.5562
372.5000	52.1809
372.4000	51.79
372.3000	51.3896
372.2000	50.9803
372.1000	50.5502
372.0000	50.1157
371.9000	49.6678
371.8000	49.2106
371.7000	48.7486
371.6000	48.2621
371.5000	47.7695
371.4000	47.2691
371.3000	46.7659
371.2000	46.2461
371.1000	45.7082
371.0000	45.1667
370.9000	44.6076
370.8000	44.0425
370.7000	43.4735
370.6000	42.8908
370.5000	42.3004
370.4000	41.6981
370.3000	41.0876
370.2000	40.4651
370.1000	39.8292
370.0000	37.6892
369.9000	37.0093
369.8000	36.3191
369.7000	35.6188
369.6000	34.9085
369.5000	34.2026
369.4000	33.4818
369.3000	32.7635
369.2000	32.0467
369.1000	31.3281
369.0000	30.5997
368.9000	29.874
368.8000	29.1398
368.7000	28.4041
368.6000	27.6678
368.5000	26.9375
368.4000	26.208
368.3000	25.4803
368.2000	24.761
368.1000	24.0406
368.0000	23.3265
367.9000	22.6098
367.8000	21.9143
367.7000	21.2231
367.6000	20.5338
367.5000	19.8482
367.4000	19.1714
367.3000	18.5043
367.2000	17.8514
367.1000	17.2078
367.0000	16.5705
366.9000	15.944
366.8000	15.3267
366.7000	14.7207
366.6000	14.121
366.5000	13.538
366.4000	12.9692
366.3000	12.4135
366.2000	11.8673
366.1000	11.3301
366.0000	10.8042
365.9000	10.295
365.8000	9.80375
365.7000	9.32586
365.6000	8.86108
365.5000	8.4102
365.4000	7.97242
365.3000	7.54632
365.2000	7.13705
365.1000	6.7416
365.0000	6.35922
364.9000	5.98975
364.8000	5.63335
364.7000	5.2919
364.6000	4.96443
364.5000	4.65017
364.4000	4.34971
364.3000	4.06134
364.2000	3.78511
364.1000	3.52221
364.0000	3.27013
363.9000	3.0311
363.8000	2.80502
363.7000	2.59315
363.6000	2.38987
363.5000	2.1979
363.4000	2.01777
363.3000	1.84976
363.2000	1.69122
363.1000	1.54234
363.0000	1.40287
362.9000	1.27364
362.8000	1.15373
362.7000	1.04234
362.6000	0.939123
362.5000	0.843181
362.4000	0.755889
362.3000	0.675267
362.2000	0.602014
362.1000	0.53487
362.0000	0.473801
361.9000	0.41869
361.8000	0.369372
361.7000	0.324443
361.6000	0.284042
361.5000	0.247526
361.4000	0.215567
361.3000	0.186964
361.2000	0.1617
361.1000	0.139424
361.0000	0.119714
360.9000	0.102694
360.8000	0.0880086
360.7000	0.0753497
360.6000	0.0641324
360.5000	0.0546494
360.4000	0.0465708
360.3000	0.0397147
360.2000	0.0339664
360.1000	0.0290623
360.0000	0.0250268
359.9000	0.0217393
359.8000	0.018968
359.7000	0.0166521
359.6000	0.0148464
359.5000	0.0132798
359.4000	0.0118921
359.3000	0.0108322
359.2000	0.0100076
359.1000	0.00931266
359.0000	0.0087178
358.9000	0.00837891
358.8000	0.00794347
358.7000	0.00758375
358.6000	0.00734698
358.5000	0.00711585
358.4000	0.00683443
358.3000	0.00659808
358.2000	0.00651778
358.1000	0.00631271
358.0000	0.00605635
357.9000	0.00595557
357.8000	0.00600631
357.7000	0.00585584
357.6000	0.00567973
357.5000	0.00570457
357.4000	0.00557853
357.3000	0.00542804
357.2000	0.00550308
357.1000	0.00537704
357.0000	0.00530161
356.9000	0.00530095
356.8000	0.00537599
356.7000	0.00524996
356.6000	0.00512464
356.5000	0.00517557
356.4000	0.00515085
356.3000	0.00502476
356.2000	0.00499933
356.1000	0.00499916
356.0000	0.00487338
355.9000	0.00479784
355.8000	0.00489821
355.7000	0.00469608
355.6000	0.00454514
355.5000	0.0046461
355.4000	0.00459582
355.3000	0.00449496
355.2000	0.00439357
355.1000	0.00444414
355.0000	0.00429285
354.9000	0.00421682
354.8000	0.00434209
354.7000	0.00429198
354.6000	0.00406573
354.5000	0.00406556
354.4000	0.00414062
354.3000	0.00396468
354.2000	0.00381378
354.1000	0.00399045
354.0000	0.00389033
353.9000	0.00373872
353.8000	0.00386339
353.7000	0.00386301
353.6000	0.00373754
353.5000	0.00371281
353.4000	0.00378822
353.3000	0.00366194
353.2000	0.00353661
353.1000	0.00368693
353.0000	0.00366174
352.9000	0.00346102
352.8000	0.00353624
352.7000	0.00358603
352.6000	0.00351039
352.5000	0.00343467
352.4000	0.00360975
352.3000	0.00350964
352.2000	0.00328375
352.1000	0.00340994
352.0000	0.00351041
351.9000	0.00335885
351.8000	0.00338401
351.7000	0.0035104
351.6000	0.00335957
351.5000	0.00313351
351.4000	0.00338461
351.3000	0.00345957
351.2000	0.00325854
351.1000	0.00335901
351.0000	0.00343477
350.9000	0.00333416
350.8000	0.00328427
350.7000	0.00351022
350.6000	0.00340976
350.5000	0.00315796
350.4000	0.00320795
350.3000	0.00325859
350.2000	0.00303284
350.1000	0.00295735
350.0000	0.00313232
349.9000	0.00315717
349.8000	0.00300637
349.7000	0.00318235
349.6000	0.00320751
349.5000	0.00298204
349.4000	0.00305717
349.3000	0.00310735
349.2000	0.00293123
349.1000	0.00278038
349.0000	0.00298132
348.9000	0.00295653
348.8000	0.00280604
348.7000	0.00298159
348.6000	0.0030817
348.5000	0.00295575
348.4000	0.00295572
348.3000	0.00310619
348.2000	0.00300618
348.1000	0.00277995
348.0000	0.00303082
347.9000	0.00300516
347.8000	0.0027788
347.7000	0.00290398
347.6000	0.0031044
347.5000	0.0029789
347.4000	0.00287856
347.3000	0.00307894
347.2000	0.00305352
347.1000	0.00282758
347.0000	0.00305237
346.9000	0.00320305
346.8000	0.00295211
346.7000	0.00295256
346.6000	0.00310293
346.5000	0.00295254
346.4000	0.00260135
346.3000	0.0027765
346.2000	0.00285108
346.1000	0.00257579
346.0000	0.00247605
345.9000	0.00267668
345.8000	0.00260133
345.7000	0.00240073
345.6000	0.00257617
345.5000	0.00255017
345.4000	0.0022499
345.3000	0.00237497
345.2000	0.00257581
345.1000	0.00227457
345.0000	0.0022488
344.9000	0.00254871
344.8000	0.00257394
344.7000	0.00244866
344.6000	0.00262465
344.5000	0.00277458
344.4000	0.00262345
344.3000	0.00272355
344.2000	0.00292369
344.1000	0.00277369
344.0000	0.00257303
343.9000	0.00289906
343.8000	0.00294965
343.7000	0.00264884
343.6000	0.00272385
343.5000	0.00294924
343.4000	0.00279876
343.3000	0.00274864
343.2000	0.00312393
343.1000	0.00302411
343.0000	0.00279902
342.9000	0.00292355
342.8000	0.00299874
342.7000	0.00267271
342.6000	0.0026473
342.5000	0.00292222
342.4000	0.00287177
342.3000	0.00264678
342.2000	0.00287128
342.1000	0.00299667
342.0000	0.00277126
341.9000	0.00284626
341.8000	0.00297112
341.7000	0.00272113
341.6000	0.00254631
341.5000	0.00287094
341.4000	0.00292064
341.3000	0.00269538
341.2000	0.00289538
341.1000	0.00309571
341.0000	0.00284551
340.9000	0.00297034
340.8000	0.0032459
340.7000	0.0031455
340.6000	0.00292043
340.5000	0.0030954
340.4000	0.00312078
340.3000	0.00289597
340.2000	0.0030457
340.1000	0.00329511
340.0000	0.0112719
339.9000	0.0110442
339.8000	0.0108624
339.7000	0.011063
339.6000	0.0110661
339.5000	0.0107586
339.4000	0.0109285
339.3000	0.0109089
339.2000	0.0106821
339.1000	0.0106495
339.0000	0.010827
338.9000	0.0105522
338.8000	0.0103465
338.7000	0.0104678
338.6000	0.0103405
338.5000	0.0101643
338.4000	0.0102859
338.3000	0.0104413
338.2000	0.0102921
338.1000	0.010161
338.0000	0.0102855
337.9000	0.0102396
337.8000	0.00996094
337.7000	0.0101554
337.6000	0.0103354
337.5000	0.0100855
337.4000	0.00998082
337.3000	0.010205
337.2000	0.00997847
337.1000	0.00974781
337.0000	0.0100996
336.9000	0.0101284
336.8000	0.00974888
336.7000	0.00971744
336.6000	0.0100437
336.5000	0.00981782
336.4000	0.0096868
336.3000	0.00996037
336.2000	0.0100392
336.1000	0.00961203
336.0000	0.00970979
335.9000	0.00981139
335.8000	0.00960958
335.7000	0.00948064
335.6000	0.00998648
335.5000	0.00991443
335.4000	0.00955947
335.3000	0.00965581
335.2000	0.00980942
335.1000	0.00963497
335.0000	0.00965757
334.9000	0.0100348
334.8000	0.00988714
334.7000	0.00968304
334.6000	0.00975724
334.5000	0.00986049
334.4000	0.00945573
334.3000	0.009629
334.2000	0.00985692
334.1000	0.009581
334.0000	0.00924808
333.9000	0.00962371
333.8000	0.00965111
333.7000	0.00942158
333.6000	0.00956976
333.5000	0.00979697
333.4000	0.00944539
333.3000	0.00931736
333.2000	0.00966844
333.1000	0.00949319
333.0000	0.00943971
332.9000	0.00973811
332.8000	0.00996609
332.7000	0.00956277
332.6000	0.00948466
332.5000	0.00993728
332.4000	0.0097129
332.3000	0.00940898
332.2000	0.00968404
332.1000	0.00966079
332.0000	0.00928046
331.9000	0.00925212
331.8000	0.0095782
331.7000	0.00927665
331.6000	0.00917419
331.5000	0.00955105
331.4000	0.00917464
331.3000	0.00882177
331.2000	0.00891939
331.1000	0.00904524
331.0000	0.00876754
330.9000	0.00861488
330.8000	0.00906689
330.7000	0.00901838
330.6000	0.00861485
330.5000	0.00896599
330.4000	0.00901659
330.3000	0.00866422
330.2000	0.00866234
330.1000	0.00893928
330.0000	0.00853689
329.9000	0.00803252
329.8000	0.00853405
329.7000	0.00843231
329.6000	0.0080809
329.5000	0.00828161
329.4000	0.00858289
329.3000	0.00823059
329.2000	0.00797746
329.1000	0.0082764
329.0000	0.00835122
328.9000	0.00789638
328.8000	0.00824783
328.7000	0.0084982
328.6000	0.00807093
328.5000	0.00806982
328.4000	0.00847023
328.3000	0.00849514
328.2000	0.00819191
328.1000	0.00861899
328.0000	0.00879423
327.9000	0.00839042
327.8000	0.0083651
327.7000	0.00874018
327.6000	0.00859012
327.5000	0.00831456
327.4000	0.00854133
327.3000	0.00859132
327.2000	0.00829158
327.1000	0.00849318
327.0000	0.00866819
326.9000	0.00831508
326.8000	0.00819038
326.7000	0.00856617
326.6000	0.00856833
326.5000	0.0081664
326.4000	0.00846703
326.3000	0.00869339
326.2000	0.00836592
326.1000	0.00834036
326.0000	0.00856524
325.9000	0.00836138
325.8000	0.00808345
325.7000	0.00833329
325.6000	0.00833075
325.5000	0.00792913
325.4000	0.00813154
325.3000	0.00840432
325.2000	0.00810332
325.1000	0.00790254
325.0000	0.00810068
324.9000	0.00802291
324.8000	0.00761972
324.7000	0.00782023
324.6000	0.0079445
324.5000	0.00761855
324.4000	0.00751848
324.3000	0.00782117
324.2000	0.00782097
324.1000	0.00754599
324.0000	0.00772353
323.9000	0.00769556
323.8000	0.00729308
323.7000	0.0073483
323.6000	0.00767137
323.5000	0.00749653
323.4000	0.0073225
323.3000	0.007724
323.2000	0.00767322
323.1000	0.00722202
323.0000	0.00737487
322.9000	0.00762373
322.8000	0.00737182
322.7000	0.00719676
322.6000	0.00744502
322.5000	0.00736864
322.4000	0.00711575
322.3000	0.00736758
322.2000	0.00753948
322.1000	0.00720835
322.0000	0.00716154
321.9000	0.00723453
321.8000	0.00705542
321.7000	0.00675626
321.6000	0.00698224
321.5000	0.00707775
321.4000	0.00672453
321.3000	0.00677684
321.2000	0.00692693
321.1000	0.0067991
321.0000	0.00655063
320.9000	0.00667326
320.8000	0.0066707
320.7000	0.00659703
320.6000	0.00675306
320.5000	0.00695291
320.4000	0.00672378
320.3000	0.0067523
320.2000	0.00682728
320.1000	0.00662089
320.0000	0.00644739
319.9000	0.00662664
319.8000	0.00682528
319.7000	0.00657397
319.6000	0.0066269
319.5000	0.00682443
319.4000	0.00674678
319.3000	0.00675011
319.2000	0.00684961
319.1000	0.00676987
319.0000	0.00646668
318.9000	0.00644337
318.8000	0.00669323
318.7000	0.00648945
318.6000	0.00656638
318.5000	0.00679291
318.4000	0.00668812
318.3000	0.00651482
318.2000	0.00659041
318.1000	0.00666338
318.0000	0.00651313
317.9000	0.00654087
317.8000	0.00666542
317.7000	0.0065364
317.6000	0.00651324
317.5000	0.0065656
317.4000	0.0066354
317.3000	0.00651273
317.2000	0.00633968
317.1000	0.00653767
317.0000	0.00646145
316.9000	0.00638728
316.8000	0.00648573
316.7000	0.00643568
316.6000	0.00631183
316.5000	0.00631163
316.4000	0.00643457
316.3000	0.00628601
316.2000	0.00623706
316.1000	0.00628721
316.0000	0.006212
315.9000	0.00608898
315.8000	0.00608901
315.7000	0.00616223
315.6000	0.00618709
315.5000	0.00618701
315.4000	0.00616212
315.3000	0.00611309
315.2000	0.00606365
315.1000	0.00603841
315.0000	0.00603798
314.9000	0.00598876
314.8000	0.0059388
314.7000	0.00601293
314.6000	0.00603761
314.5000	0.00593807
314.4000	0.00593758
314.3000	0.00596143
314.2000	0.00591125
314.1000	0.00588686
314.0000	0.00593652
313.9000	0.00593684
313.8000	0.00591029
313.7000	0.0059586
313.6000	0.00598295
313.5000	0.00608192
313.4000	0.00608123
313.3000	0.00605606
313.2000	0.00598206
313.1000	0.00595764
313.0000	0.00588261
312.9000	0.00598193
312.8000	0.00595766
312.7000	0.00598128
312.6000	0.00598152
312.5000	0.00595712
312.4000	0.00590637
312.3000	0.00578208
312.2000	0.00583194
312.1000	0.005708
312.0000	0.00563278
311.9000	0.00558316
311.8000	0.00551059
311.7000	0.00555918
311.6000	0.00553461
311.5000	0.00553391
311.4000	0.0054852
311.3000	0.00543446
311.2000	0.00550817
311.1000	0.0054591
311.0000	0.005336
310.9000	0.00536041
310.8000	0.00533632
310.7000	0.00531159
310.6000	0.00526176
310.5000	0.00540998
310.4000	0.00541112
310.3000	0.00541045
310.2000	0.0056069
310.1000	0.00565588
310.0000	0.00572853
309.9000	0.00567891
309.8000	0.00582645
309.7000	0.00577824
309.6000	0.00570341
309.5000	0.0058261
309.4000	0.0059728
309.3000	0.0058488
309.2000	0.00582377
309.1000	0.00584808
309.0000	0.0057494
308.9000	0.00565178
308.8000	0.00574967
308.7000	0.00562664
308.6000	0.00542877
308.5000	0.0054042
308.4000	0.00540519
308.3000	0.00533087
308.2000	0.0051826
308.1000	0.00535417
308.0000	0.0051823
307.9000	0.00498517
307.8000	0.00498581
307.7000	0.00503531
307.6000	0.00488636
307.5000	0.00491085
307.4000	0.00508278
307.3000	0.00505693
307.2000	0.00500775
307.1000	0.00522858
307.0000	0.00515467
306.9000	0.00490823
306.8000	0.00493247
306.7000	0.0050552
306.6000	0.00493175
306.5000	0.00485737
306.4000	0.00515159
306.3000	0.0051267
306.2000	0.00505223
306.1000	0.00514971
306.0000	0.00522415
305.9000	0.00505188
305.8000	0.0049779
305.7000	0.00522304
305.6000	0.00505074
305.5000	0.00485464
305.4000	0.00507519
305.3000	0.00519801
305.2000	0.00497651
305.1000	0.00495172
305.0000	0.00519723
304.9000	0.00497676
304.8000	0.00485375
304.7000	0.00497586
304.6000	0.00499986
304.5000	0.00485233
304.4000	0.00502371
304.3000	0.00519598
304.2000	0.00504935
304.1000	0.00482834
304.0000	0.00509676
303.9000	0.00504716
303.8000	0.00480239
303.7000	0.00497293
303.6000	0.00519318
303.5000	0.00504578
303.4000	0.00499639
303.3000	0.00524092
303.2000	0.00506961
303.1000	0.00482492
303.0000	0.0048731
302.9000	0.00494587
302.8000	0.00470076
302.7000	0.00469989
302.6000	0.00489483
302.5000	0.00482126
302.4000	0.00467484
302.3000	0.00491895
302.2000	0.00491746
302.1000	0.004674
302.0000	0.00469819
301.9000	0.00474703
301.8000	0.00447728
301.7000	0.00437855
301.6000	0.00464768
301.5000	0.0047454
301.4000	0.00462339
301.3000	0.00467215
301.2000	0.00479428
301.1000	0.00462276
301.0000	0.00462322
300.9000	0.00484323
300.8000	0.004696
300.7000	0.00450033
300.6000	0.00479417
300.5000	0.00481813
300.4000	0.00454972
300.3000	0.00464716
300.2000	0.00484246
300.1000	0.00471968
300.0000	0.00464568
299.9000	0.00489032
299.8000	0.0048175
299.7000	0.00464667
299.6000	0.00476857
299.5000	0.00489054
299.4000	0.00462016
299.3000	0.00454668
299.2000	0.00479103
299.1000	0.00474275
299.0000	0.00452297
298.9000	0.00479129
298.8000	0.00491207
298.7000	0.00471638
298.6000	0.00478978
298.5000	0.00496139
298.4000	0.00469281
298.3000	0.00444745
298.2000	0.00471506
298.1000	0.00469029
298.0000	0.00434813
297.9000	0.00451915
297.8000	0.00473964
297.7000	0.00454425
297.6000	0.00447046
297.5000	0.00468957
297.4000	0.00459149
297.3000	0.00427355
297.2000	0.00439611
297.1000	0.00439595
297.0000	0.00415106
296.9000	0.00420086
296.8000	0.00439588
296.7000	0.00434722
296.6000	0.00424955
296.5000	0.00444511
296.4000	0.00459114
296.3000	0.00427381
296.2000	0.0042734
296.1000	0.00444371
296.0000	0.00432134
295.9000	0.0042479
295.8000	0.00446795
295.7000	0.00449273
295.6000	0.0042718
295.5000	0.00451628
295.4000	0.00463832
295.3000	0.00431976
295.2000	0.0043689
295.1000	0.00449123
295.0000	0.00431979
294.9000	0.00429467
294.8000	0.00444127
294.7000	0.00451381
294.6000	0.00431876
294.5000	0.00434361
294.4000	0.00441697
294.3000	0.00419662
294.2000	0.00414711
294.1000	0.00431716
294.0000	0.00431763
293.9000	0.00414642
293.8000	0.00429335
293.7000	0.00451259
293.6000	0.00438916
293.5000	0.00446203
293.4000	0.00465734
293.3000	0.00448692
293.2000	0.00434057
293.1000	0.0044869
293.0000	0.00451111
292.9000	0.0043635
292.8000	0.0044361
292.7000	0.00465625
292.6000	0.00443654
292.5000	0.0043635
292.4000	0.0045341
292.3000	0.00443633
292.2000	0.0041675
292.1000	0.00424022
292.0000	0.00428954
291.9000	0.00409414
291.8000	0.00402085
291.7000	0.00409308
291.6000	0.00404369
291.5000	0.00392141
291.4000	0.00404324
291.3000	0.00409224
291.2000	0.00392168
291.1000	0.00396974
291.0000	0.00409129
290.9000	0.00394417
290.8000	0.00387142
290.7000	0.00406656
290.6000	0.00411439
290.5000	0.00401729
290.4000	0.00404132
290.3000	0.00416331
290.2000	0.00413927
290.1000	0.00409158
290.0000	0.00421315
289.9000	0.00416408
289.8000	0.00414004
289.7000	0.00416386
289.6000	0.00423624
289.5000	0.00404213
289.4000	0.00409111
289.3000	0.00418828
289.2000	0.00411499
289.1000	0.0039929
289.0000	0.00406732
288.9000	0.00404248
288.8000	0.00394474
288.7000	0.00394446
288.6000	0.00384667
288.5000	0.0037731
288.4000	0.00372453
288.3000	0.00372485
288.2000	0.00367505
288.1000	0.00357799
288.0000	0.00360368
287.9000	0.00370022
287.8000	0.00360294
287.7000	0.00362763
287.6000	0.00367583
287.5000	0.00365092
287.4000	0.00364991
287.3000	0.00360073
287.2000	0.00364926
287.1000	0.00357639
287.0000	0.00369767
286.9000	0.00386717
286.8000	0.00381825
286.7000	0.00389125
286.6000	0.0039152
286.5000	0.00391486
286.4000	0.00386537
286.3000	0.00386586
286.2000	0.00386499
286.1000	0.00376745
286.0000	0.00374298
285.9000	0.00371869
285.8000	0.00366947
285.7000	0.00371854
285.6000	0.00371852
285.5000	0.00379098
285.4000	0.00379144
285.3000	0.00374287
285.2000	0.00366874
285.1000	0.00369238
285.0000	0.00364456
284.9000	0.00364485
284.8000	0.00366915
284.7000	0.00369316
284.6000	0.0036927
284.5000	0.00371714
284.4000	0.00374151
284.3000	0.00378998
284.2000	0.00386246
284.1000	0.00388705
284.0000	0.00386274
283.9000	0.0038132
283.8000	0.00381244
283.7000	0.003837
283.6000	0.00393507
283.5000	0.00381332
283.4000	0.00395795
283.3000	0.00400637
283.2000	0.00403048
283.1000	0.00395656
283.0000	0.00395684
282.9000	0.00398029
282.8000	0.00402843
282.7000	0.00414987
282.6000	0.00412632
282.5000	0.00402817
282.4000	0.00407679
282.3000	0.00407685
282.2000	0.0040041
282.1000	0.00395524
282.0000	0.00402757
281.9000	0.00400228
281.8000	0.00385688
281.7000	0.00390572
281.6000	0.0038568
281.5000	0.00383261
281.4000	0.00397776
281.3000	0.00407517
281.2000	0.00395391
281.1000	0.00388083
281.0000	0.00392926
280.9000	0.00390458
280.8000	0.00383135
280.7000	0.0039045
280.6000	0.00397709
280.5000	0.00397635
280.4000	0.00390395
280.3000	0.0040753
280.2000	0.00402724
280.1000	0.00390553
280.0000	0.004051
279.9000	0.00400215
279.8000	0.00383213
279.7000	0.00378344
279.6000	0.00385594
279.5000	0.00363708
279.4000	0.00349127
279.3000	0.00363663
279.2000	0.00363652
279.1000	0.00356364
279.0000	0.00356335
278.9000	0.00358818
278.8000	0.00349084
278.7000	0.00336837
278.6000	0.00353722
278.5000	0.00346335
278.4000	0.0033179
278.3000	0.00346385
278.2000	0.00351254
278.1000	0.00336703
278.0000	0.00334231
277.9000	0.00360925
277.8000	0.00358473
277.7000	0.00353691
277.6000	0.00365847
277.5000	0.0035365
277.4000	0.00341445
277.3000	0.00346236
277.2000	0.00353477
277.1000	0.00343787
277.0000	0.0034144
276.9000	0.00360835
276.8000	0.00355907
276.7000	0.00343724
276.6000	0.00353423
276.5000	0.00358227
276.4000	0.00350938
276.3000	0.00350912
276.2000	0.00370281
276.1000	0.00353245
276.0000	0.00341085
275.9000	0.00362912
275.8000	0.00362928
275.7000	0.00341166
275.6000	0.00355705
275.5000	0.00370222
275.4000	0.00353089
275.3000	0.0035558
275.2000	0.00372582
275.1000	0.00365317
275.0000	0.00353182
274.9000	0.00367787
274.8000	0.00375004
274.7000	0.0035315
274.6000	0.00350726
274.5000	0.00372536
274.4000	0.00374924
274.3000	0.00357934
274.2000	0.00374894
274.1000	0.0038453
274.0000	0.00360288
273.9000	0.00370035
273.8000	0.00379735
273.7000	0.00355418
273.6000	0.00340866
273.5000	0.0036023
273.4000	0.00355368
273.3000	0.00335908
273.2000	0.00343178
273.1000	0.0034801
273.0000	0.00328586
272.9000	0.00321337
272.8000	0.00331058
272.7000	0.00323729
272.6000	0.00309157
272.5000	0.00321299
272.4000	0.00331008
272.3000	0.00306753
272.2000	0.00318854
272.1000	0.00343048
272.0000	0.00340727
271.9000	0.00333426
271.8000	0.00347973
271.7000	0.00345483
271.6000	0.00333425
271.5000	0.00352908
271.4000	0.00364998
271.3000	0.00355227
271.2000	0.00345548
271.1000	0.00362522
271.0000	0.00355299
270.9000	0.00345551
270.8000	0.00355159
270.7000	0.00369727
270.6000	0.00343164
270.5000	0.00335963
270.4000	0.00340663
270.3000	0.00333373
270.2000	0.00328478
270.1000	0.00352745
270.0000	0.00355222
269.9000	0.0032846
269.8000	0.00333244
269.7000	0.00333233
269.6000	0.00323503
269.5000	0.00321114
269.4000	0.003332
269.3000	0.00328295
269.2000	0.00311373
269.1000	0.00318592
269.0000	0.00330693
268.9000	0.00316108
268.8000	0.00318538
268.7000	0.00325783
268.6000	0.00311266
268.5000	0.00301587
268.4000	0.00311192
268.3000	0.00320889
268.2000	0.00308844
268.1000	0.00323421
268.0000	0.00333076
267.9000	0.00320916
267.8000	0.00323342
267.7000	0.00335557
267.6000	0.00335562
267.5000	0.0032829
267.4000	0.0034276
267.3000	0.00352417
267.2000	0.00337879
267.1000	0.00340329
267.0000	0.00357279
266.9000	0.00347593
266.8000	0.00337869
266.7000	0.00345124
266.6000	0.00345117
266.5000	0.00340208
266.4000	0.00345045
266.3000	0.0034987
266.2000	0.00337805
266.1000	0.00332914
266.0000	0.00340163
265.9000	0.00342484
265.8000	0.00325544
265.7000	0.00332858
265.6000	0.00342595
265.5000	0.00332961
265.4000	0.00325645
265.3000	0.00335299
265.2000	0.00332834
265.1000	0.00330445
265.0000	0.0034014
264.9000	0.00337758
264.8000	0.00325659
264.7000	0.00323262
264.6000	0.00328004
264.5000	0.00323183
264.4000	0.00325604
264.3000	0.00323206
264.2000	0.00325611
264.1000	0.00315905
264.0000	0.00315866
263.9000	0.00323127
263.8000	0.00320694
263.7000	0.00320702
263.6000	0.00318326
263.5000	0.00315902
263.4000	0.00306229
263.3000	0.00313473
263.2000	0.0031825
263.1000	0.00320674
263.0000	0.00318315
262.9000	0.00330379
262.8000	0.00318344
262.7000	0.00313561
262.6000	0.00318389
262.5000	0.00325558
262.4000	0.00325591
262.3000	0.00320709
262.2000	0.00325556
262.1000	0.00325561
262.0000	0.00328033
261.9000	0.00323154
261.8000	0.00327941
261.7000	0.00323127
261.6000	0.00325562
261.5000	0.00327999
261.4000	0.00335249
261.3000	0.0032074
261.2000	0.00325431
261.1000	0.00325384
261.0000	0.00325402
260.9000	0.00320657
260.8000	0.0032064
260.7000	0.00320646
260.6000	0.00308537
260.5000	0.00306093
260.4000	0.00315708
260.3000	0.00322933
260.2000	0.00320592
260.1000	0.00318156
260.0000	0.0032539
259.9000	0.00323
259.8000	0.00315732
259.7000	0.0031814
259.6000	0.00318201
259.5000	0.00325452
259.4000	0.00325487
259.3000	0.00325491
259.2000	0.00320619
259.1000	0.00322979
259.0000	0.00335132
258.9000	0.0033028
258.8000	0.00327857
258.7000	0.00327884
258.6000	0.0032306
258.5000	0.00325453
258.4000	0.00318258
258.3000	0.00325507
258.2000	0.00330363
258.1000	0.00327908
258.0000	0.00339999
257.9000	0.00325479
257.8000	0.00310961
257.7000	0.00313419
257.6000	0.00320772
257.5000	0.00315969
257.4000	0.00318376
257.3000	0.00323246
257.2000	0.0031599
257.1000	0.00315988
257.0000	0.0033284
256.9000	0.0033287
256.8000	0.00332876
256.7000	0.00335267
256.6000	0.00335247
256.5000	0.00332783
256.4000	0.00325534
256.3000	0.00340097
256.2000	0.00344903
256.1000	0.00344819
256.0000	0.00352044
255.9000	0.00359349
255.8000	0.00349713
255.7000	0.003569
255.6000	0.00366556
255.5000	0.00361679
255.4000	0.00349596
255.3000	0.00352161
255.2000	0.00347303
255.1000	0.00332759
255.0000	0.00335173
254.9000	0.0034736
254.8000	0.00342501
254.7000	0.00335317
254.6000	0.00352323
254.5000	0.00342651
254.4000	0.00328058
254.3000	0.00330468
254.2000	0.00340117
254.1000	0.00325703
254.0000	0.00318491
253.9000	0.00325858
253.8000	0.00316219
253.7000	0.00311209
253.6000	0.00325768
253.5000	0.00330663
253.4000	0.00321036
253.3000	0.00323457
253.2000	0.00333206
253.1000	0.00330723
253.0000	0.0031858
252.9000	0.00335592
252.8000	0.00338087
252.7000	0.00330814
252.6000	0.00328391
252.5000	0.00330804
252.4000	0.00328365
252.3000	0.00328351
252.2000	0.00345269
252.1000	0.00342855
252.0000	0.0032829
251.9000	0.00340428
251.8000	0.0034526
251.7000	0.00323458
251.6000	0.00323392
251.5000	0.00328231
251.4000	0.00320975
251.3000	0.00308821
251.2000	0.00318488
251.1000	0.00313647
251.0000	0.00306449
250.9000	0.00318595
250.8000	0.00321012
250.7000	0.00304057
250.6000	0.0030164
250.5000	0.00308966
250.4000	0.00309042
250.3000	0.0029454
250.2000	0.0030904
250.1000	0.00316326
250.0000	0.00306695
