TITLE	n-GaN
DATA TYPE	ULTRAVIOLET SPECTRUM
ORIGIN	JASCO
OWNER	
DATE	19/11/20
TIME	15:13:29
SPECTROMETER/DATA SYSTEM	
RESOLUTION	
DELTAX	-1
XUNITS	NANOMETERS
YUNITS	TRANSMITTANCE
FIRSTX	 2500.0000
LASTX	  300.0000
NPOINTS	    2201
FIRSTY	   100.46647
MAXY	   100.92569
MINY	    99.65479
XYDATA
2500.0000	100.466
2499.0000	100.332
2498.0000	100.341
2497.0000	100.335
2496.0000	100.282
2495.0000	100.247
2494.0000	100.231
2493.0000	100.261
2492.0000	100.315
2491.0000	100.286
2490.0000	100.327
2489.0000	100.274
2488.0000	100.328
2487.0000	100.334
2486.0000	100.36
2485.0000	100.424
2484.0000	100.333
2483.0000	100.475
2482.0000	100.513
2481.0000	100.476
2480.0000	100.417
2479.0000	100.385
2478.0000	100.393
2477.0000	100.441
2476.0000	100.372
2475.0000	100.36
2474.0000	100.382
2473.0000	100.317
2472.0000	100.341
2471.0000	100.314
2470.0000	100.257
2469.0000	100.268
2468.0000	100.226
2467.0000	100.236
2466.0000	100.244
2465.0000	100.306
2464.0000	100.327
2463.0000	100.331
2462.0000	100.38
2461.0000	100.486
2460.0000	100.385
2459.0000	100.396
2458.0000	100.32
2457.0000	100.287
2456.0000	100.237
2455.0000	100.288
2454.0000	100.252
2453.0000	100.341
2452.0000	100.347
2451.0000	100.37
2450.0000	100.421
2449.0000	100.409
2448.0000	100.382
2447.0000	100.402
2446.0000	100.403
2445.0000	100.408
2444.0000	100.462
2443.0000	100.462
2442.0000	100.531
2441.0000	100.445
2440.0000	100.397
2439.0000	100.486
2438.0000	100.438
2437.0000	100.411
2436.0000	100.382
2435.0000	100.365
2434.0000	100.419
2433.0000	100.376
2432.0000	100.315
2431.0000	100.28
2430.0000	100.286
2429.0000	100.339
2428.0000	100.315
2427.0000	100.373
2426.0000	100.381
2425.0000	100.35
2424.0000	100.368
2423.0000	100.327
2422.0000	100.287
2421.0000	100.28
2420.0000	100.316
2419.0000	100.356
2418.0000	100.336
2417.0000	100.296
2416.0000	100.336
2415.0000	100.357
2414.0000	100.263
2413.0000	100.281
2412.0000	100.287
2411.0000	100.346
2410.0000	100.344
2409.0000	100.391
2408.0000	100.353
2407.0000	100.324
2406.0000	100.307
2405.0000	100.244
2404.0000	100.265
2403.0000	100.315
2402.0000	100.304
2401.0000	100.442
2400.0000	100.388
2399.0000	100.443
2398.0000	100.46
2397.0000	100.366
2396.0000	100.393
2395.0000	100.336
2394.0000	100.339
2393.0000	100.365
2392.0000	100.33
2391.0000	100.359
2390.0000	100.24
2389.0000	100.329
2388.0000	100.408
2387.0000	100.388
2386.0000	100.459
2385.0000	100.482
2384.0000	100.532
2383.0000	100.453
2382.0000	100.425
2381.0000	100.462
2380.0000	100.444
2379.0000	100.377
2378.0000	100.304
2377.0000	100.408
2376.0000	100.411
2375.0000	100.31
2374.0000	100.325
2373.0000	100.302
2372.0000	100.355
2371.0000	100.347
2370.0000	100.293
2369.0000	100.309
2368.0000	100.292
2367.0000	100.3
2366.0000	100.34
2365.0000	100.266
2364.0000	100.245
2363.0000	100.231
2362.0000	100.261
2361.0000	100.277
2360.0000	100.313
2359.0000	100.314
2358.0000	100.354
2357.0000	100.287
2356.0000	100.335
2355.0000	100.242
2354.0000	100.3
2353.0000	100.288
2352.0000	100.341
2351.0000	100.371
2350.0000	100.434
2349.0000	100.389
2348.0000	100.397
2347.0000	100.397
2346.0000	100.357
2345.0000	100.337
2344.0000	100.322
2343.0000	100.403
2342.0000	100.438
2341.0000	100.422
2340.0000	100.406
2339.0000	100.417
2338.0000	100.404
2337.0000	100.389
2336.0000	100.383
2335.0000	100.4
2334.0000	100.389
2333.0000	100.416
2332.0000	100.44
2331.0000	100.492
2330.0000	100.473
2329.0000	100.375
2328.0000	100.363
2327.0000	100.363
2326.0000	100.317
2325.0000	100.269
2324.0000	100.256
2323.0000	100.336
2322.0000	100.4
2321.0000	100.381
2320.0000	100.371
2319.0000	100.353
2318.0000	100.32
2317.0000	100.282
2316.0000	100.231
2315.0000	100.233
2314.0000	100.257
2313.0000	100.285
2312.0000	100.338
2311.0000	100.293
2310.0000	100.321
2309.0000	100.318
2308.0000	100.247
2307.0000	100.27
2306.0000	100.25
2305.0000	100.237
2304.0000	100.246
2303.0000	100.298
2302.0000	100.33
2301.0000	100.39
2300.0000	100.419
2299.0000	100.405
2298.0000	100.397
2297.0000	100.442
2296.0000	100.482
2295.0000	100.444
2294.0000	100.484
2293.0000	100.46
2292.0000	100.454
2291.0000	100.456
2290.0000	100.313
2289.0000	100.355
2288.0000	100.284
2287.0000	100.309
2286.0000	100.309
2285.0000	100.309
2284.0000	100.257
2283.0000	100.269
2282.0000	100.21
2281.0000	100.282
2280.0000	100.265
2279.0000	100.219
2278.0000	100.204
2277.0000	100.25
2276.0000	100.287
2275.0000	100.332
2274.0000	100.36
2273.0000	100.402
2272.0000	100.463
2271.0000	100.48
2270.0000	100.433
2269.0000	100.44
2268.0000	100.42
2267.0000	100.377
2266.0000	100.393
2265.0000	100.33
2264.0000	100.333
2263.0000	100.338
2262.0000	100.333
2261.0000	100.284
2260.0000	100.298
2259.0000	100.338
2258.0000	100.341
2257.0000	100.353
2256.0000	100.366
2255.0000	100.392
2254.0000	100.406
2253.0000	100.414
2252.0000	100.334
2251.0000	100.336
2250.0000	100.423
2249.0000	100.387
2248.0000	100.346
2247.0000	100.398
2246.0000	100.406
2245.0000	100.437
2244.0000	100.363
2243.0000	100.31
2242.0000	100.287
2241.0000	100.266
2240.0000	100.282
2239.0000	100.374
2238.0000	100.363
2237.0000	100.455
2236.0000	100.44
2235.0000	100.44
2234.0000	100.462
2233.0000	100.48
2232.0000	100.422
2231.0000	100.407
2230.0000	100.406
2229.0000	100.433
2228.0000	100.378
2227.0000	100.325
2226.0000	100.338
2225.0000	100.423
2224.0000	100.361
2223.0000	100.342
2222.0000	100.415
2221.0000	100.415
2220.0000	100.363
2219.0000	100.388
2218.0000	100.344
2217.0000	100.329
2216.0000	100.326
2215.0000	100.367
2214.0000	100.323
2213.0000	100.358
2212.0000	100.309
2211.0000	100.319
2210.0000	100.356
2209.0000	100.401
2208.0000	100.363
2207.0000	100.353
2206.0000	100.256
2205.0000	100.272
2204.0000	100.275
2203.0000	100.277
2202.0000	100.211
2201.0000	100.235
2200.0000	100.287
2199.0000	100.322
2198.0000	100.407
2197.0000	100.36
2196.0000	100.355
2195.0000	100.367
2194.0000	100.399
2193.0000	100.362
2192.0000	100.309
2191.0000	100.296
2190.0000	100.212
2189.0000	100.262
2188.0000	100.246
2187.0000	100.216
2186.0000	100.215
2185.0000	100.288
2184.0000	100.351
2183.0000	100.277
2182.0000	100.298
2181.0000	100.283
2180.0000	100.3
2179.0000	100.317
2178.0000	100.305
2177.0000	100.306
2176.0000	100.284
2175.0000	100.315
2174.0000	100.223
2173.0000	100.284
2172.0000	100.215
2171.0000	100.299
2170.0000	100.324
2169.0000	100.411
2168.0000	100.391
2167.0000	100.331
2166.0000	100.346
2165.0000	100.334
2164.0000	100.316
2163.0000	100.278
2162.0000	100.283
2161.0000	100.343
2160.0000	100.248
2159.0000	100.236
2158.0000	100.248
2157.0000	100.269
2156.0000	100.275
2155.0000	100.281
2154.0000	100.3
2153.0000	100.319
2152.0000	100.319
2151.0000	100.3
2150.0000	100.339
2149.0000	100.331
2148.0000	100.346
2147.0000	100.279
2146.0000	100.306
2145.0000	100.315
2144.0000	100.251
2143.0000	100.223
2142.0000	100.271
2141.0000	100.287
2140.0000	100.27
2139.0000	100.289
2138.0000	100.26
2137.0000	100.294
2136.0000	100.248
2135.0000	100.338
2134.0000	100.328
2133.0000	100.326
2132.0000	100.35
2131.0000	100.421
2130.0000	100.507
2129.0000	100.441
2128.0000	100.411
2127.0000	100.451
2126.0000	100.417
2125.0000	100.396
2124.0000	100.4
2123.0000	100.438
2122.0000	100.356
2121.0000	100.367
2120.0000	100.329
2119.0000	100.326
2118.0000	100.269
2117.0000	100.23
2116.0000	100.277
2115.0000	100.294
2114.0000	100.283
2113.0000	100.223
2112.0000	100.322
2111.0000	100.262
2110.0000	100.247
2109.0000	100.232
2108.0000	100.281
2107.0000	100.385
2106.0000	100.354
2105.0000	100.329
2104.0000	100.338
2103.0000	100.522
2102.0000	100.405
2101.0000	100.36
2100.0000	100.367
2099.0000	100.431
2098.0000	100.415
2097.0000	100.361
2096.0000	100.336
2095.0000	100.349
2094.0000	100.365
2093.0000	100.336
2092.0000	100.36
2091.0000	100.348
2090.0000	100.276
2089.0000	100.288
2088.0000	100.28
2087.0000	100.331
2086.0000	100.348
2085.0000	100.29
2084.0000	100.304
2083.0000	100.288
2082.0000	100.342
2081.0000	100.294
2080.0000	100.302
2079.0000	100.296
2078.0000	100.272
2077.0000	100.277
2076.0000	100.259
2075.0000	100.265
2074.0000	100.251
2073.0000	100.297
2072.0000	100.312
2071.0000	100.304
2070.0000	100.254
2069.0000	100.241
2068.0000	100.215
2067.0000	100.193
2066.0000	100.163
2065.0000	100.212
2064.0000	100.334
2063.0000	100.339
2062.0000	100.339
2061.0000	100.324
2060.0000	100.282
2059.0000	100.265
2058.0000	100.156
2057.0000	100.186
2056.0000	100.282
2055.0000	100.264
2054.0000	100.279
2053.0000	100.306
2052.0000	100.335
2051.0000	100.293
2050.0000	100.329
2049.0000	100.323
2048.0000	100.357
2047.0000	100.317
2046.0000	100.311
2045.0000	100.323
2044.0000	100.316
2043.0000	100.292
2042.0000	100.333
2041.0000	100.329
2040.0000	100.399
2039.0000	100.417
2038.0000	100.37
2037.0000	100.386
2036.0000	100.383
2035.0000	100.395
2034.0000	100.381
2033.0000	100.332
2032.0000	100.381
2031.0000	100.377
2030.0000	100.36
2029.0000	100.386
2028.0000	100.407
2027.0000	100.336
2026.0000	100.365
2025.0000	100.33
2024.0000	100.338
2023.0000	100.309
2022.0000	100.323
2021.0000	100.365
2020.0000	100.333
2019.0000	100.308
2018.0000	100.314
2017.0000	100.377
2016.0000	100.332
2015.0000	100.406
2014.0000	100.391
2013.0000	100.415
2012.0000	100.413
2011.0000	100.361
2010.0000	100.37
2009.0000	100.347
2008.0000	100.338
2007.0000	100.332
2006.0000	100.322
2005.0000	100.362
2004.0000	100.365
2003.0000	100.328
2002.0000	100.29
2001.0000	100.252
2000.0000	100.252
1999.0000	100.256
1998.0000	100.287
1997.0000	100.228
1996.0000	100.242
1995.0000	100.28
1994.0000	100.315
1993.0000	100.307
1992.0000	100.301
1991.0000	100.34
1990.0000	100.32
1989.0000	100.336
1988.0000	100.325
1987.0000	100.329
1986.0000	100.3
1985.0000	100.351
1984.0000	100.374
1983.0000	100.366
1982.0000	100.39
1981.0000	100.397
1980.0000	100.407
1979.0000	100.38
1978.0000	100.351
1977.0000	100.383
1976.0000	100.371
1975.0000	100.388
1974.0000	100.341
1973.0000	100.344
1972.0000	100.296
1971.0000	100.23
1970.0000	100.179
1969.0000	100.234
1968.0000	100.229
1967.0000	100.255
1966.0000	100.291
1965.0000	100.334
1964.0000	100.373
1963.0000	100.32
1962.0000	100.319
1961.0000	100.294
1960.0000	100.283
1959.0000	100.267
1958.0000	100.324
1957.0000	100.349
1956.0000	100.346
1955.0000	100.341
1954.0000	100.388
1953.0000	100.397
1952.0000	100.355
1951.0000	100.32
1950.0000	100.269
1949.0000	100.23
1948.0000	100.211
1947.0000	100.249
1946.0000	100.25
1945.0000	100.324
1944.0000	100.354
1943.0000	100.379
1942.0000	100.423
1941.0000	100.383
1940.0000	100.436
1939.0000	100.349
1938.0000	100.365
1937.0000	100.315
1936.0000	100.343
1935.0000	100.377
1934.0000	100.356
1933.0000	100.388
1932.0000	100.342
1931.0000	100.359
1930.0000	100.343
1929.0000	100.405
1928.0000	100.356
1927.0000	100.33
1926.0000	100.387
1925.0000	100.386
1924.0000	100.461
1923.0000	100.413
1922.0000	100.403
1921.0000	100.423
1920.0000	100.423
1919.0000	100.404
1918.0000	100.339
1917.0000	100.4
1916.0000	100.392
1915.0000	100.346
1914.0000	100.372
1913.0000	100.242
1912.0000	100.248
1911.0000	100.215
1910.0000	100.191
1909.0000	100.207
1908.0000	100.298
1907.0000	100.323
1906.0000	100.352
1905.0000	100.367
1904.0000	100.473
1903.0000	100.469
1902.0000	100.368
1901.0000	100.405
1900.0000	100.34
1899.0000	100.322
1898.0000	100.247
1897.0000	100.27
1896.0000	100.241
1895.0000	100.195
1894.0000	100.181
1893.0000	100.175
1892.0000	100.262
1891.0000	100.305
1890.0000	100.35
1889.0000	100.324
1888.0000	100.348
1887.0000	100.332
1886.0000	100.341
1885.0000	100.273
1884.0000	100.279
1883.0000	100.261
1882.0000	100.265
1881.0000	100.256
1880.0000	100.286
1879.0000	100.319
1878.0000	100.336
1877.0000	100.308
1876.0000	100.344
1875.0000	100.343
1874.0000	100.304
1873.0000	100.222
1872.0000	100.206
1871.0000	100.255
1870.0000	100.222
1869.0000	100.271
1868.0000	100.271
1867.0000	100.274
1866.0000	100.275
1865.0000	100.235
1864.0000	100.18
1863.0000	100.169
1862.0000	100.172
1861.0000	100.207
1860.0000	100.268
1859.0000	100.22
1858.0000	100.252
1857.0000	100.282
1856.0000	100.31
1855.0000	100.317
1854.0000	100.295
1853.0000	100.299
1852.0000	100.302
1851.0000	100.342
1850.0000	100.271
1849.0000	100.255
1848.0000	100.27
1847.0000	100.287
1846.0000	100.323
1845.0000	100.273
1844.0000	100.267
1843.0000	100.257
1842.0000	100.283
1841.0000	100.291
1840.0000	100.271
1839.0000	100.232
1838.0000	100.288
1837.0000	100.255
1836.0000	100.232
1835.0000	100.182
1834.0000	100.247
1833.0000	100.227
1832.0000	100.3
1831.0000	100.304
1830.0000	100.327
1829.0000	100.402
1828.0000	100.376
1827.0000	100.35
1826.0000	100.309
1825.0000	100.299
1824.0000	100.287
1823.0000	100.276
1822.0000	100.22
1821.0000	100.216
1820.0000	100.281
1819.0000	100.262
1818.0000	100.286
1817.0000	100.288
1816.0000	100.314
1815.0000	100.301
1814.0000	100.296
1813.0000	100.316
1812.0000	100.336
1811.0000	100.299
1810.0000	100.274
1809.0000	100.285
1808.0000	100.275
1807.0000	100.305
1806.0000	100.286
1805.0000	100.318
1804.0000	100.304
1803.0000	100.345
1802.0000	100.322
1801.0000	100.284
1800.0000	100.311
1799.0000	100.241
1798.0000	100.27
1797.0000	100.247
1796.0000	100.282
1795.0000	100.293
1794.0000	100.309
1793.0000	100.334
1792.0000	100.33
1791.0000	100.301
1790.0000	100.274
1789.0000	100.217
1788.0000	100.213
1787.0000	100.256
1786.0000	100.285
1785.0000	100.324
1784.0000	100.32
1783.0000	100.296
1782.0000	100.324
1781.0000	100.306
1780.0000	100.265
1779.0000	100.254
1778.0000	100.313
1777.0000	100.35
1776.0000	100.386
1775.0000	100.374
1774.0000	100.364
1773.0000	100.364
1772.0000	100.364
1771.0000	100.349
1770.0000	100.314
1769.0000	100.308
1768.0000	100.298
1767.0000	100.289
1766.0000	100.274
1765.0000	100.264
1764.0000	100.282
1763.0000	100.289
1762.0000	100.323
1761.0000	100.299
1760.0000	100.337
1759.0000	100.323
1758.0000	100.331
1757.0000	100.321
1756.0000	100.305
1755.0000	100.337
1754.0000	100.315
1753.0000	100.306
1752.0000	100.337
1751.0000	100.332
1750.0000	100.329
1749.0000	100.353
1748.0000	100.346
1747.0000	100.371
1746.0000	100.361
1745.0000	100.337
1744.0000	100.34
1743.0000	100.348
1742.0000	100.33
1741.0000	100.33
1740.0000	100.303
1739.0000	100.309
1738.0000	100.306
1737.0000	100.301
1736.0000	100.287
1735.0000	100.287
1734.0000	100.296
1733.0000	100.306
1732.0000	100.276
1731.0000	100.268
1730.0000	100.299
1729.0000	100.305
1728.0000	100.291
1727.0000	100.31
1726.0000	100.303
1725.0000	100.295
1724.0000	100.273
1723.0000	100.253
1722.0000	100.293
1721.0000	100.28
1720.0000	100.28
1719.0000	100.285
1718.0000	100.298
1717.0000	100.288
1716.0000	100.297
1715.0000	100.293
1714.0000	100.314
1713.0000	100.317
1712.0000	100.296
1711.0000	100.322
1710.0000	100.303
1709.0000	100.313
1708.0000	100.287
1707.0000	100.301
1706.0000	100.315
1705.0000	100.325
1704.0000	100.365
1703.0000	100.321
1702.0000	100.348
1701.0000	100.344
1700.0000	100.341
1699.0000	100.309
1698.0000	100.31
1697.0000	100.281
1696.0000	100.243
1695.0000	100.255
1694.0000	100.234
1693.0000	100.231
1692.0000	100.236
1691.0000	100.224
1690.0000	100.278
1689.0000	100.266
1688.0000	100.287
1687.0000	100.288
1686.0000	100.281
1685.0000	100.27
1684.0000	100.233
1683.0000	100.244
1682.0000	100.262
1681.0000	100.274
1680.0000	100.265
1679.0000	100.276
1678.0000	100.282
1677.0000	100.281
1676.0000	100.283
1675.0000	100.268
1674.0000	100.242
1673.0000	100.241
1672.0000	100.225
1671.0000	100.261
1670.0000	100.274
1669.0000	100.258
1668.0000	100.292
1667.0000	100.283
1666.0000	100.301
1665.0000	100.285
1664.0000	100.318
1663.0000	100.31
1662.0000	100.288
1661.0000	100.27
1660.0000	100.298
1659.0000	100.273
1658.0000	100.251
1657.0000	100.28
1656.0000	100.285
1655.0000	100.301
1654.0000	100.295
1653.0000	100.279
1652.0000	100.31
1651.0000	100.288
1650.0000	100.246
1649.0000	100.227
1648.0000	100.224
1647.0000	100.249
1646.0000	100.244
1645.0000	100.261
1644.0000	100.264
1643.0000	100.297
1642.0000	100.27
1641.0000	100.268
1640.0000	100.3
1639.0000	100.275
1638.0000	100.296
1637.0000	100.269
1636.0000	100.292
1635.0000	100.28
1634.0000	100.277
1633.0000	100.256
1632.0000	100.292
1631.0000	100.291
1630.0000	100.309
1629.0000	100.293
1628.0000	100.275
1627.0000	100.291
1626.0000	100.264
1625.0000	100.258
1624.0000	100.255
1623.0000	100.248
1622.0000	100.277
1621.0000	100.255
1620.0000	100.301
1619.0000	100.267
1618.0000	100.3
1617.0000	100.287
1616.0000	100.305
1615.0000	100.267
1614.0000	100.254
1613.0000	100.259
1612.0000	100.247
1611.0000	100.262
1610.0000	100.215
1609.0000	100.255
1608.0000	100.27
1607.0000	100.28
1606.0000	100.299
1605.0000	100.279
1604.0000	100.295
1603.0000	100.273
1602.0000	100.253
1601.0000	100.247
1600.0000	100.245
1599.0000	100.239
1598.0000	100.273
1597.0000	100.295
1596.0000	100.307
1595.0000	100.36
1594.0000	100.3
1593.0000	100.343
1592.0000	100.324
1591.0000	100.333
1590.0000	100.288
1589.0000	100.295
1588.0000	100.26
1587.0000	100.267
1586.0000	100.288
1585.0000	100.259
1584.0000	100.247
1583.0000	100.254
1582.0000	100.274
1581.0000	100.26
1580.0000	100.224
1579.0000	100.261
1578.0000	100.237
1577.0000	100.276
1576.0000	100.241
1575.0000	100.263
1574.0000	100.275
1573.0000	100.308
1572.0000	100.308
1571.0000	100.296
1570.0000	100.332
1569.0000	100.34
1568.0000	100.327
1567.0000	100.307
1566.0000	100.331
1565.0000	100.328
1564.0000	100.343
1563.0000	100.336
1562.0000	100.328
1561.0000	100.343
1560.0000	100.333
1559.0000	100.325
1558.0000	100.336
1557.0000	100.303
1556.0000	100.298
1555.0000	100.303
1554.0000	100.299
1553.0000	100.295
1552.0000	100.299
1551.0000	100.277
1550.0000	100.279
1549.0000	100.299
1548.0000	100.283
1547.0000	100.292
1546.0000	100.275
1545.0000	100.312
1544.0000	100.315
1543.0000	100.316
1542.0000	100.247
1541.0000	100.263
1540.0000	100.306
1539.0000	100.296
1538.0000	100.292
1537.0000	100.308
1536.0000	100.344
1535.0000	100.379
1534.0000	100.319
1533.0000	100.314
1532.0000	100.308
1531.0000	100.296
1530.0000	100.274
1529.0000	100.24
1528.0000	100.221
1527.0000	100.231
1526.0000	100.268
1525.0000	100.24
1524.0000	100.253
1523.0000	100.238
1522.0000	100.234
1521.0000	100.246
1520.0000	100.244
1519.0000	100.24
1518.0000	100.239
1517.0000	100.272
1516.0000	100.289
1515.0000	100.28
1514.0000	100.28
1513.0000	100.272
1512.0000	100.276
1511.0000	100.297
1510.0000	100.285
1509.0000	100.298
1508.0000	100.309
1507.0000	100.336
1506.0000	100.329
1505.0000	100.34
1504.0000	100.338
1503.0000	100.358
1502.0000	100.325
1501.0000	100.33
1500.0000	100.343
1499.0000	100.309
1498.0000	100.313
1497.0000	100.276
1496.0000	100.277
1495.0000	100.31
1494.0000	100.293
1493.0000	100.319
1492.0000	100.327
1491.0000	100.332
1490.0000	100.316
1489.0000	100.307
1488.0000	100.301
1487.0000	100.299
1486.0000	100.272
1485.0000	100.313
1484.0000	100.288
1483.0000	100.277
1482.0000	100.284
1481.0000	100.26
1480.0000	100.278
1479.0000	100.263
1478.0000	100.244
1477.0000	100.233
1476.0000	100.21
1475.0000	100.234
1474.0000	100.221
1473.0000	100.251
1472.0000	100.238
1471.0000	100.235
1470.0000	100.247
1469.0000	100.284
1468.0000	100.272
1467.0000	100.245
1466.0000	100.276
1465.0000	100.28
1464.0000	100.268
1463.0000	100.282
1462.0000	100.291
1461.0000	100.295
1460.0000	100.284
1459.0000	100.238
1458.0000	100.247
1457.0000	100.234
1456.0000	100.258
1455.0000	100.255
1454.0000	100.266
1453.0000	100.29
1452.0000	100.304
1451.0000	100.293
1450.0000	100.256
1449.0000	100.275
1448.0000	100.271
1447.0000	100.232
1446.0000	100.224
1445.0000	100.219
1444.0000	100.25
1443.0000	100.236
1442.0000	100.251
1441.0000	100.275
1440.0000	100.279
1439.0000	100.297
1438.0000	100.304
1437.0000	100.281
1436.0000	100.301
1435.0000	100.288
1434.0000	100.312
1433.0000	100.317
1432.0000	100.322
1431.0000	100.345
1430.0000	100.321
1429.0000	100.328
1428.0000	100.348
1427.0000	100.324
1426.0000	100.308
1425.0000	100.297
1424.0000	100.28
1423.0000	100.263
1422.0000	100.283
1421.0000	100.28
1420.0000	100.274
1419.0000	100.276
1418.0000	100.273
1417.0000	100.245
1416.0000	100.236
1415.0000	100.231
1414.0000	100.255
1413.0000	100.27
1412.0000	100.269
1411.0000	100.26
1410.0000	100.246
1409.0000	100.271
1408.0000	100.225
1407.0000	100.227
1406.0000	100.224
1405.0000	100.242
1404.0000	100.236
1403.0000	100.248
1402.0000	100.28
1401.0000	100.308
1400.0000	100.284
1399.0000	100.302
1398.0000	100.287
1397.0000	100.284
1396.0000	100.295
1395.0000	100.279
1394.0000	100.3
1393.0000	100.288
1392.0000	100.287
1391.0000	100.285
1390.0000	100.277
1389.0000	100.282
1388.0000	100.284
1387.0000	100.292
1386.0000	100.304
1385.0000	100.287
1384.0000	100.318
1383.0000	100.273
1382.0000	100.3
1381.0000	100.316
1380.0000	100.31
1379.0000	100.303
1378.0000	100.299
1377.0000	100.305
1376.0000	100.302
1375.0000	100.27
1374.0000	100.25
1373.0000	100.239
1372.0000	100.23
1371.0000	100.216
1370.0000	100.228
1369.0000	100.229
1368.0000	100.24
1367.0000	100.261
1366.0000	100.268
1365.0000	100.294
1364.0000	100.298
1363.0000	100.305
1362.0000	100.29
1361.0000	100.281
1360.0000	100.29
1359.0000	100.291
1358.0000	100.292
1357.0000	100.305
1356.0000	100.285
1355.0000	100.3
1354.0000	100.307
1353.0000	100.297
1352.0000	100.261
1351.0000	100.26
1350.0000	100.258
1349.0000	100.273
1348.0000	100.28
1347.0000	100.275
1346.0000	100.309
1345.0000	100.302
1344.0000	100.289
1343.0000	100.294
1342.0000	100.286
1341.0000	100.276
1340.0000	100.256
1339.0000	100.258
1338.0000	100.263
1337.0000	100.268
1336.0000	100.27
1335.0000	100.256
1334.0000	100.262
1333.0000	100.271
1332.0000	100.233
1331.0000	100.24
1330.0000	100.241
1329.0000	100.266
1328.0000	100.254
1327.0000	100.272
1326.0000	100.265
1325.0000	100.246
1324.0000	100.259
1323.0000	100.244
1322.0000	100.238
1321.0000	100.246
1320.0000	100.257
1319.0000	100.276
1318.0000	100.282
1317.0000	100.282
1316.0000	100.27
1315.0000	100.266
1314.0000	100.249
1313.0000	100.249
1312.0000	100.262
1311.0000	100.253
1310.0000	100.263
1309.0000	100.246
1308.0000	100.257
1307.0000	100.278
1306.0000	100.251
1305.0000	100.273
1304.0000	100.264
1303.0000	100.257
1302.0000	100.259
1301.0000	100.275
1300.0000	100.271
1299.0000	100.296
1298.0000	100.327
1297.0000	100.302
1296.0000	100.334
1295.0000	100.336
1294.0000	100.327
1293.0000	100.31
1292.0000	100.267
1291.0000	100.297
1290.0000	100.274
1289.0000	100.263
1288.0000	100.256
1287.0000	100.262
1286.0000	100.278
1285.0000	100.268
1284.0000	100.259
1283.0000	100.248
1282.0000	100.278
1281.0000	100.248
1280.0000	100.233
1279.0000	100.239
1278.0000	100.222
1277.0000	100.235
1276.0000	100.212
1275.0000	100.25
1274.0000	100.249
1273.0000	100.267
1272.0000	100.298
1271.0000	100.304
1270.0000	100.283
1269.0000	100.264
1268.0000	100.268
1267.0000	100.249
1266.0000	100.237
1265.0000	100.225
1264.0000	100.219
1263.0000	100.225
1262.0000	100.252
1261.0000	100.259
1260.0000	100.252
1259.0000	100.248
1258.0000	100.245
1257.0000	100.229
1256.0000	100.239
1255.0000	100.202
1254.0000	100.214
1253.0000	100.202
1252.0000	100.223
1251.0000	100.258
1250.0000	100.28
1249.0000	100.291
1248.0000	100.29
1247.0000	100.314
1246.0000	100.304
1245.0000	100.314
1244.0000	100.308
1243.0000	100.295
1242.0000	100.303
1241.0000	100.266
1240.0000	100.283
1239.0000	100.269
1238.0000	100.289
1237.0000	100.241
1236.0000	100.261
1235.0000	100.276
1234.0000	100.274
1233.0000	100.287
1232.0000	100.282
1231.0000	100.296
1230.0000	100.278
1229.0000	100.264
1228.0000	100.268
1227.0000	100.238
1226.0000	100.239
1225.0000	100.246
1224.0000	100.271
1223.0000	100.256
1222.0000	100.267
1221.0000	100.266
1220.0000	100.269
1219.0000	100.297
1218.0000	100.283
1217.0000	100.301
1216.0000	100.289
1215.0000	100.297
1214.0000	100.285
1213.0000	100.253
1212.0000	100.259
1211.0000	100.232
1210.0000	100.222
1209.0000	100.212
1208.0000	100.221
1207.0000	100.233
1206.0000	100.24
1205.0000	100.253
1204.0000	100.262
1203.0000	100.288
1202.0000	100.297
1201.0000	100.307
1200.0000	100.22
1199.0000	100.223
1198.0000	100.217
1197.0000	100.237
1196.0000	100.211
1195.0000	100.21
1194.0000	100.202
1193.0000	100.213
1192.0000	100.211
1191.0000	100.2
1190.0000	100.213
1189.0000	100.235
1188.0000	100.258
1187.0000	100.259
1186.0000	100.255
1185.0000	100.247
1184.0000	100.255
1183.0000	100.25
1182.0000	100.214
1181.0000	100.241
1180.0000	100.22
1179.0000	100.242
1178.0000	100.249
1177.0000	100.238
1176.0000	100.237
1175.0000	100.246
1174.0000	100.252
1173.0000	100.243
1172.0000	100.252
1171.0000	100.234
1170.0000	100.244
1169.0000	100.25
1168.0000	100.238
1167.0000	100.247
1166.0000	100.237
1165.0000	100.257
1164.0000	100.27
1163.0000	100.268
1162.0000	100.282
1161.0000	100.262
1160.0000	100.256
1159.0000	100.254
1158.0000	100.223
1157.0000	100.225
1156.0000	100.211
1155.0000	100.204
1154.0000	100.187
1153.0000	100.209
1152.0000	100.223
1151.0000	100.214
1150.0000	100.212
1149.0000	100.226
1148.0000	100.216
1147.0000	100.215
1146.0000	100.216
1145.0000	100.218
1144.0000	100.222
1143.0000	100.219
1142.0000	100.215
1141.0000	100.236
1140.0000	100.216
1139.0000	100.207
1138.0000	100.207
1137.0000	100.203
1136.0000	100.232
1135.0000	100.224
1134.0000	100.198
1133.0000	100.212
1132.0000	100.209
1131.0000	100.241
1130.0000	100.225
1129.0000	100.23
1128.0000	100.228
1127.0000	100.249
1126.0000	100.233
1125.0000	100.244
1124.0000	100.224
1123.0000	100.226
1122.0000	100.237
1121.0000	100.232
1120.0000	100.262
1119.0000	100.242
1118.0000	100.267
1117.0000	100.24
1116.0000	100.216
1115.0000	100.224
1114.0000	100.196
1113.0000	100.204
1112.0000	100.201
1111.0000	100.202
1110.0000	100.217
1109.0000	100.221
1108.0000	100.251
1107.0000	100.225
1106.0000	100.235
1105.0000	100.244
1104.0000	100.235
1103.0000	100.228
1102.0000	100.248
1101.0000	100.202
1100.0000	100.215
1099.0000	100.219
1098.0000	100.205
1097.0000	100.223
1096.0000	100.212
1095.0000	100.243
1094.0000	100.243
1093.0000	100.267
1092.0000	100.251
1091.0000	100.263
1090.0000	100.257
1089.0000	100.232
1088.0000	100.225
1087.0000	100.206
1086.0000	100.218
1085.0000	100.219
1084.0000	100.197
1083.0000	100.221
1082.0000	100.225
1081.0000	100.203
1080.0000	100.212
1079.0000	100.216
1078.0000	100.223
1077.0000	100.216
1076.0000	100.199
1075.0000	100.234
1074.0000	100.235
1073.0000	100.227
1072.0000	100.241
1071.0000	100.253
1070.0000	100.277
1069.0000	100.271
1068.0000	100.225
1067.0000	100.242
1066.0000	100.223
1065.0000	100.218
1064.0000	100.214
1063.0000	100.173
1062.0000	100.207
1061.0000	100.224
1060.0000	100.232
1059.0000	100.224
1058.0000	100.213
1057.0000	100.228
1056.0000	100.208
1055.0000	100.192
1054.0000	100.195
1053.0000	100.207
1052.0000	100.201
1051.0000	100.18
1050.0000	100.206
1049.0000	100.206
1048.0000	100.212
1047.0000	100.209
1046.0000	100.203
1045.0000	100.203
1044.0000	100.217
1043.0000	100.203
1042.0000	100.205
1041.0000	100.198
1040.0000	100.203
1039.0000	100.234
1038.0000	100.221
1037.0000	100.254
1036.0000	100.252
1035.0000	100.262
1034.0000	100.249
1033.0000	100.254
1032.0000	100.248
1031.0000	100.241
1030.0000	100.214
1029.0000	100.208
1028.0000	100.209
1027.0000	100.204
1026.0000	100.197
1025.0000	100.197
1024.0000	100.168
1023.0000	100.182
1022.0000	100.192
1021.0000	100.186
1020.0000	100.191
1019.0000	100.196
1018.0000	100.2
1017.0000	100.202
1016.0000	100.216
1015.0000	100.269
1014.0000	100.258
1013.0000	100.271
1012.0000	100.287
1011.0000	100.3
1010.0000	100.307
1009.0000	100.279
1008.0000	100.269
1007.0000	100.267
1006.0000	100.241
1005.0000	100.209
1004.0000	100.184
1003.0000	100.182
1002.0000	100.166
1001.0000	100.185
1000.0000	100.186
999.0000	100.172
998.0000	100.206
997.0000	100.222
996.0000	100.23
995.0000	100.204
994.0000	100.204
993.0000	100.194
992.0000	100.222
991.0000	100.209
990.0000	100.177
989.0000	100.213
988.0000	100.195
987.0000	100.234
986.0000	100.232
985.0000	100.227
984.0000	100.227
983.0000	100.219
982.0000	100.276
981.0000	100.261
980.0000	100.247
979.0000	100.266
978.0000	100.26
977.0000	100.263
976.0000	100.224
975.0000	100.226
974.0000	100.201
973.0000	100.229
972.0000	100.204
971.0000	100.186
970.0000	100.195
969.0000	100.181
968.0000	100.205
967.0000	100.161
966.0000	100.159
965.0000	100.152
964.0000	100.17
963.0000	100.166
962.0000	100.196
961.0000	100.196
960.0000	100.174
959.0000	100.181
958.0000	100.182
957.0000	100.2
956.0000	100.202
955.0000	100.23
954.0000	100.223
953.0000	100.215
952.0000	100.208
951.0000	100.204
950.0000	100.173
949.0000	100.165
948.0000	100.197
947.0000	100.205
946.0000	100.263
945.0000	100.238
944.0000	100.26
943.0000	100.271
942.0000	100.244
941.0000	100.199
940.0000	100.204
939.0000	100.185
938.0000	100.213
937.0000	100.196
936.0000	100.235
935.0000	100.294
934.0000	100.284
933.0000	100.284
932.0000	100.244
931.0000	100.302
930.0000	100.276
929.0000	100.25
928.0000	100.198
927.0000	100.22
926.0000	100.225
925.0000	100.15
924.0000	100.15
923.0000	100.169
922.0000	100.211
921.0000	100.23
920.0000	100.275
919.0000	100.279
918.0000	100.292
917.0000	100.256
916.0000	100.242
915.0000	100.235
914.0000	100.22
913.0000	100.215
912.0000	100.208
911.0000	100.243
910.0000	100.277
909.0000	100.253
908.0000	100.242
907.0000	100.241
906.0000	100.228
905.0000	100.23
904.0000	100.222
903.0000	100.199
902.0000	100.135
901.0000	100.173
900.0000	99.7905
899.0000	99.6548
898.0000	100.238
897.0000	100.731
896.0000	100.452
895.0000	100.716
894.0000	100.926
893.0000	100.781
892.0000	100.628
891.0000	100.357
890.0000	100.212
889.0000	100.168
888.0000	100.114
887.0000	100.207
886.0000	100.383
885.0000	100.586
884.0000	100.548
883.0000	100.568
882.0000	100.444
881.0000	100.364
880.0000	100.216
879.0000	100.093
878.0000	100.084
877.0000	100.084
876.0000	100.196
875.0000	100.341
874.0000	100.452
873.0000	100.502
872.0000	100.507
871.0000	100.48
870.0000	100.471
869.0000	100.51
868.0000	100.525
867.0000	100.501
866.0000	100.49
865.0000	100.431
864.0000	100.453
863.0000	100.39
862.0000	100.395
861.0000	100.415
860.0000	100.396
859.0000	100.441
858.0000	100.434
857.0000	100.484
856.0000	100.461
855.0000	100.473
854.0000	100.46
853.0000	100.484
852.0000	100.481
851.0000	100.445
850.0000	100.432
849.0000	100.415
848.0000	100.412
847.0000	100.419
846.0000	100.433
845.0000	100.45
844.0000	100.459
843.0000	100.511
842.0000	100.467
841.0000	100.454
840.0000	100.413
839.0000	100.398
838.0000	100.381
837.0000	100.369
836.0000	100.395
835.0000	100.397
834.0000	100.457
833.0000	100.453
832.0000	100.46
831.0000	100.482
830.0000	100.406
829.0000	100.39
828.0000	100.362
827.0000	100.35
826.0000	100.336
825.0000	100.323
824.0000	100.335
823.0000	100.37
822.0000	100.433
821.0000	100.421
820.0000	100.454
819.0000	100.44
818.0000	100.466
817.0000	100.451
816.0000	100.426
815.0000	100.4
814.0000	100.39
813.0000	100.365
812.0000	100.333
811.0000	100.311
810.0000	100.298
809.0000	100.292
808.0000	100.291
807.0000	100.342
806.0000	100.346
805.0000	100.348
804.0000	100.374
803.0000	100.395
802.0000	100.393
801.0000	100.374
800.0000	100.375
799.0000	100.377
798.0000	100.397
797.0000	100.364
796.0000	100.388
795.0000	100.406
794.0000	100.383
793.0000	100.417
792.0000	100.375
791.0000	100.4
790.0000	100.37
789.0000	100.355
788.0000	100.376
787.0000	100.347
786.0000	100.364
785.0000	100.348
784.0000	100.374
783.0000	100.365
782.0000	100.381
781.0000	100.369
780.0000	100.372
779.0000	100.369
778.0000	100.34
777.0000	100.363
776.0000	100.337
775.0000	100.359
774.0000	100.365
773.0000	100.351
772.0000	100.385
771.0000	100.377
770.0000	100.4
769.0000	100.378
768.0000	100.377
767.0000	100.367
766.0000	100.371
765.0000	100.357
764.0000	100.32
763.0000	100.337
762.0000	100.321
761.0000	100.314
760.0000	100.323
759.0000	100.313
758.0000	100.332
757.0000	100.337
756.0000	100.353
755.0000	100.355
754.0000	100.356
753.0000	100.343
752.0000	100.333
751.0000	100.304
750.0000	100.305
749.0000	100.308
748.0000	100.326
747.0000	100.34
746.0000	100.365
745.0000	100.367
744.0000	100.366
743.0000	100.375
742.0000	100.353
741.0000	100.345
740.0000	100.315
739.0000	100.344
738.0000	100.312
737.0000	100.348
736.0000	100.349
735.0000	100.322
734.0000	100.313
733.0000	100.271
732.0000	100.298
731.0000	100.266
730.0000	100.267
729.0000	100.269
728.0000	100.292
727.0000	100.306
726.0000	100.304
725.0000	100.313
724.0000	100.325
723.0000	100.33
722.0000	100.305
721.0000	100.316
720.0000	100.308
719.0000	100.316
718.0000	100.325
717.0000	100.318
716.0000	100.342
715.0000	100.357
714.0000	100.36
713.0000	100.354
712.0000	100.357
711.0000	100.341
710.0000	100.351
709.0000	100.327
708.0000	100.327
707.0000	100.321
706.0000	100.313
705.0000	100.318
704.0000	100.315
703.0000	100.337
702.0000	100.32
701.0000	100.332
700.0000	100.331
699.0000	100.353
698.0000	100.329
697.0000	100.348
696.0000	100.342
695.0000	100.337
694.0000	100.345
693.0000	100.318
692.0000	100.349
691.0000	100.315
690.0000	100.32
689.0000	100.298
688.0000	100.302
687.0000	100.309
686.0000	100.304
685.0000	100.308
684.0000	100.287
683.0000	100.313
682.0000	100.301
681.0000	100.311
680.0000	100.306
679.0000	100.313
678.0000	100.324
677.0000	100.32
676.0000	100.338
675.0000	100.323
674.0000	100.339
673.0000	100.333
672.0000	100.326
671.0000	100.334
670.0000	100.327
669.0000	100.335
668.0000	100.317
667.0000	100.327
666.0000	100.326
665.0000	100.33
664.0000	100.315
663.0000	100.305
662.0000	100.314
661.0000	100.307
660.0000	100.312
659.0000	100.31
658.0000	100.327
657.0000	100.314
656.0000	100.325
655.0000	100.321
654.0000	100.322
653.0000	100.317
652.0000	100.313
651.0000	100.317
650.0000	100.306
649.0000	100.313
648.0000	100.311
647.0000	100.323
646.0000	100.302
645.0000	100.323
644.0000	100.316
643.0000	100.315
642.0000	100.324
641.0000	100.313
640.0000	100.315
639.0000	100.306
638.0000	100.326
637.0000	100.295
636.0000	100.314
635.0000	100.307
634.0000	100.304
633.0000	100.31
632.0000	100.292
631.0000	100.319
630.0000	100.29
629.0000	100.311
628.0000	100.304
627.0000	100.315
626.0000	100.315
625.0000	100.301
624.0000	100.31
623.0000	100.305
622.0000	100.315
621.0000	100.307
620.0000	100.314
619.0000	100.314
618.0000	100.314
617.0000	100.308
616.0000	100.303
615.0000	100.295
614.0000	100.283
613.0000	100.279
612.0000	100.286
611.0000	100.285
610.0000	100.281
609.0000	100.291
608.0000	100.28
607.0000	100.296
606.0000	100.287
605.0000	100.294
604.0000	100.29
603.0000	100.281
602.0000	100.296
601.0000	100.28
600.0000	100.301
599.0000	100.301
598.0000	100.315
597.0000	100.304
596.0000	100.311
595.0000	100.316
594.0000	100.328
593.0000	100.324
592.0000	100.318
591.0000	100.326
590.0000	100.33
589.0000	100.329
588.0000	100.324
587.0000	100.331
586.0000	100.32
585.0000	100.316
584.0000	100.307
583.0000	100.301
582.0000	100.298
581.0000	100.288
580.0000	100.294
579.0000	100.288
578.0000	100.311
577.0000	100.31
576.0000	100.329
575.0000	100.322
574.0000	100.321
573.0000	100.324
572.0000	100.314
571.0000	100.318
570.0000	100.298
569.0000	100.3
568.0000	100.298
567.0000	100.295
566.0000	100.296
565.0000	100.284
564.0000	100.294
563.0000	100.273
562.0000	100.298
561.0000	100.292
560.0000	100.293
559.0000	100.301
558.0000	100.296
557.0000	100.319
556.0000	100.301
555.0000	100.312
554.0000	100.3
553.0000	100.304
552.0000	100.304
551.0000	100.304
550.0000	100.321
549.0000	100.296
548.0000	100.317
547.0000	100.313
546.0000	100.315
545.0000	100.32
544.0000	100.308
543.0000	100.32
542.0000	100.307
541.0000	100.315
540.0000	100.287
539.0000	100.287
538.0000	100.283
537.0000	100.281
536.0000	100.288
535.0000	100.282
534.0000	100.303
533.0000	100.299
532.0000	100.316
531.0000	100.3
530.0000	100.299
529.0000	100.297
528.0000	100.292
527.0000	100.295
526.0000	100.282
525.0000	100.29
524.0000	100.291
523.0000	100.291
522.0000	100.294
521.0000	100.276
520.0000	100.267
519.0000	100.249
518.0000	100.27
517.0000	100.259
516.0000	100.261
515.0000	100.253
514.0000	100.269
513.0000	100.27
512.0000	100.274
511.0000	100.277
510.0000	100.275
509.0000	100.29
508.0000	100.284
507.0000	100.278
506.0000	100.262
505.0000	100.254
504.0000	100.252
503.0000	100.242
502.0000	100.246
501.0000	100.233
500.0000	100.22
499.0000	100.213
498.0000	100.207
497.0000	100.227
496.0000	100.221
495.0000	100.228
494.0000	100.232
493.0000	100.24
492.0000	100.244
491.0000	100.239
490.0000	100.229
489.0000	100.228
488.0000	100.237
487.0000	100.231
486.0000	100.242
485.0000	100.243
484.0000	100.248
483.0000	100.249
482.0000	100.241
481.0000	100.252
480.0000	100.246
479.0000	100.258
478.0000	100.251
477.0000	100.26
476.0000	100.281
475.0000	100.278
474.0000	100.286
473.0000	100.274
472.0000	100.277
471.0000	100.284
470.0000	100.268
469.0000	100.267
468.0000	100.24
467.0000	100.247
466.0000	100.242
465.0000	100.243
464.0000	100.235
463.0000	100.226
462.0000	100.252
461.0000	100.252
460.0000	100.262
459.0000	100.242
458.0000	100.25
457.0000	100.238
456.0000	100.233
455.0000	100.23
454.0000	100.237
453.0000	100.25
452.0000	100.249
451.0000	100.254
450.0000	100.249
449.0000	100.259
448.0000	100.251
447.0000	100.235
446.0000	100.258
445.0000	100.246
444.0000	100.258
443.0000	100.244
442.0000	100.261
441.0000	100.267
440.0000	100.251
439.0000	100.259
438.0000	100.241
437.0000	100.257
436.0000	100.243
435.0000	100.254
434.0000	100.237
433.0000	100.246
432.0000	100.245
431.0000	100.233
430.0000	100.244
429.0000	100.224
428.0000	100.226
427.0000	100.22
426.0000	100.224
425.0000	100.235
424.0000	100.237
423.0000	100.26
422.0000	100.273
421.0000	100.3
420.0000	100.259
419.0000	100.277
418.0000	100.274
417.0000	100.285
416.0000	100.269
415.0000	100.25
414.0000	100.255
413.0000	100.229
412.0000	100.259
411.0000	100.243
410.0000	100.266
409.0000	100.293
408.0000	100.288
407.0000	100.29
406.0000	100.284
405.0000	100.269
404.0000	100.261
403.0000	100.26
402.0000	100.257
401.0000	100.255
400.0000	100.289
399.0000	100.286
398.0000	100.275
397.0000	100.27
396.0000	100.279
395.0000	100.289
394.0000	100.255
393.0000	100.253
392.0000	100.25
391.0000	100.265
390.0000	100.254
389.0000	100.244
388.0000	100.267
387.0000	100.241
386.0000	100.244
385.0000	100.259
384.0000	100.282
383.0000	100.282
382.0000	100.269
381.0000	100.29
380.0000	100.257
379.0000	100.27
378.0000	100.269
377.0000	100.297
376.0000	100.288
375.0000	100.293
374.0000	100.286
373.0000	100.308
372.0000	100.293
371.0000	100.268
370.0000	100.266
369.0000	100.31
368.0000	100.339
367.0000	100.341
366.0000	100.318
365.0000	100.347
364.0000	100.332
363.0000	100.294
362.0000	100.267
361.0000	100.274
360.0000	100.29
359.0000	100.225
358.0000	100.238
357.0000	100.247
356.0000	100.264
355.0000	100.246
354.0000	100.231
353.0000	100.247
352.0000	100.248
351.0000	100.234
350.0000	100.237
349.0000	100.271
348.0000	100.295
347.0000	100.302
346.0000	100.305
345.0000	100.332
344.0000	100.326
343.0000	100.333
342.0000	100.303
341.0000	100.278
340.0000	100.12
339.0000	100.088
338.0000	100.07
337.0000	100.029
336.0000	99.9962
335.0000	99.9678
334.0000	100.01
333.0000	100.032
332.0000	100.055
331.0000	100.117
330.0000	100.119
329.0000	100.1
328.0000	100.075
327.0000	100.037
326.0000	100.032
325.0000	100.014
324.0000	100.019
323.0000	100.004
322.0000	100.047
321.0000	100.045
320.0000	100.028
319.0000	100.05
318.0000	100.039
317.0000	100.068
316.0000	100.043
315.0000	100.022
314.0000	100.036
313.0000	100.019
312.0000	99.9974
311.0000	99.9833
310.0000	99.9641
309.0000	99.9639
308.0000	99.9472
307.0000	99.9241
306.0000	99.9307
305.0000	99.9266
304.0000	99.9598
303.0000	99.9995
302.0000	100.04
301.0000	100.054
300.0000	100.053
